#Collected Data-386
#Intensity_unit=counts
#Attenuator_coefficient=1.000000
10.0000 25582.0000
10.0200 25317.0000
10.0400 25570.0000
10.0600 25651.0000
10.0800 25489.0000
10.1000 25531.0000
10.1200 25248.0000
10.1400 25420.0000
10.1600 25393.0000
10.1800 25747.0000
10.2000 25166.0000
10.2200 25286.0000
10.2400 25265.0000
10.2600 25059.0000
10.2800 25287.0000
10.3000 25331.0000
10.3200 25305.0000
10.3400 25013.0000
10.3600 24967.0000
10.3800 25157.0000
10.4000 25238.0000
10.4200 25302.0000
10.4400 25170.0000
10.4600 24854.0000
10.4800 25109.0000
10.5000 25090.0000
10.5200 24978.0000
10.5400 25213.0000
10.5600 25033.0000
10.5800 24758.0000
10.6000 24869.0000
10.6200 24802.0000
10.6400 24603.0000
10.6600 24771.0000
10.6800 24710.0000
10.7000 24528.0000
10.7200 24770.0000
10.7400 24479.0000
10.7600 24644.0000
10.7800 24748.0000
10.8000 24701.0000
10.8200 24525.0000
10.8400 24593.0000
10.8600 24549.0000
10.8800 24796.0000
10.9000 24681.0000
10.9200 24522.0000
10.9400 24327.0000
10.9600 24460.0000
10.9800 24622.0000
11.0000 24451.0000
11.0200 24552.0000
11.0400 24525.0000
11.0600 24117.0000
11.0800 24151.0000
11.1000 24242.0000
11.1200 24233.0000
11.1400 24428.0000
11.1600 24159.0000
11.1800 23934.0000
11.2000 24368.0000
11.2200 24398.0000
11.2400 24413.0000
11.2600 24261.0000
11.2800 23964.0000
11.3000 24256.0000
11.3200 24227.0000
11.3400 24340.0000
11.3600 23603.0000
11.3800 23557.0000
11.4000 24036.0000
11.4200 23923.0000
11.4400 23832.0000
11.4600 23788.0000
11.4800 23757.0000
11.5000 23839.0000
11.5200 23930.0000
11.5400 23892.0000
11.5600 23899.0000
11.5800 23941.0000
11.6000 23629.0000
11.6200 23571.0000
11.6400 23508.0000
11.6600 23773.0000
11.6800 23336.0000
11.7000 23503.0000
11.7200 23258.0000
11.7400 23577.0000
11.7600 23531.0000
11.7800 23417.0000
11.8000 23712.0000
11.8200 23516.0000
11.8400 23545.0000
11.8600 23523.0000
11.8800 23413.0000
11.9000 23423.0000
11.9200 23347.0000
11.9400 23226.0000
11.9600 23175.0000
11.9800 23437.0000
12.0000 23254.0000
12.0200 23095.0000
12.0400 23285.0000
12.0600 23206.0000
12.0800 23043.0000
12.1000 23206.0000
12.1200 23084.0000
12.1400 23056.0000
12.1600 23110.0000
12.1800 23347.0000
12.2000 23223.0000
12.2200 23014.0000
12.2400 23084.0000
12.2600 23001.0000
12.2800 23022.0000
12.3000 23214.0000
12.3200 22984.0000
12.3400 22854.0000
12.3600 22770.0000
12.3800 22908.0000
12.4000 22734.0000
12.4200 22975.0000
12.4400 22627.0000
12.4600 22757.0000
12.4800 22465.0000
12.5000 22610.0000
12.5200 22533.0000
12.5400 22553.0000
12.5600 22571.0000
12.5800 22595.0000
12.6000 22483.0000
12.6200 22369.0000
12.6400 22200.0000
12.6600 22498.0000
12.6800 22361.0000
12.7000 22351.0000
12.7200 22538.0000
12.7400 22266.0000
12.7600 22374.0000
12.7800 22373.0000
12.8000 22351.0000
12.8200 22311.0000
12.8400 22166.0000
12.8600 22238.0000
12.8800 22061.0000
12.9000 22006.0000
12.9200 22157.0000
12.9400 22230.0000
12.9600 21988.0000
12.9800 21998.0000
13.0000 21972.0000
13.0200 22029.0000
13.0400 22129.0000
13.0600 22048.0000
13.0800 21753.0000
13.1000 21774.0000
13.1200 21839.0000
13.1400 21779.0000
13.1600 22098.0000
13.1800 21905.0000
13.2000 22135.0000
13.2200 21781.0000
13.2400 21680.0000
13.2600 21628.0000
13.2800 21671.0000
13.3000 21828.0000
13.3200 21913.0000
13.3400 21852.0000
13.3600 21498.0000
13.3800 21794.0000
13.4000 21748.0000
13.4200 21447.0000
13.4400 21770.0000
13.4600 21540.0000
13.4800 21573.0000
13.5000 21663.0000
13.5200 21417.0000
13.5400 21371.0000
13.5600 21447.0000
13.5800 21305.0000
13.6000 21454.0000
13.6200 21611.0000
13.6400 21170.0000
13.6600 21486.0000
13.6800 21497.0000
13.7000 21315.0000
13.7200 21486.0000
13.7400 21288.0000
13.7600 21401.0000
13.7800 21201.0000
13.8000 21135.0000
13.8200 21210.0000
13.8400 21137.0000
13.8600 21335.0000
13.8800 21138.0000
13.9000 21099.0000
13.9200 21119.0000
13.9400 20963.0000
13.9600 20787.0000
13.9800 21029.0000
14.0000 21050.0000
14.0200 20888.0000
14.0400 20613.0000
14.0600 20892.0000
14.0800 20774.0000
14.1000 20561.0000
14.1200 20837.0000
14.1400 20920.0000
14.1600 21143.0000
14.1800 20780.0000
14.2000 20667.0000
14.2200 20850.0000
14.2400 20548.0000
14.2600 20617.0000
14.2800 20882.0000
14.3000 20867.0000
14.3200 20900.0000
14.3400 20823.0000
14.3600 20626.0000
14.3800 20538.0000
14.4000 20791.0000
14.4200 20723.0000
14.4400 20645.0000
14.4600 20645.0000
14.4800 20664.0000
14.5000 20714.0000
14.5200 20667.0000
14.5400 20541.0000
14.5600 20356.0000
14.5800 20528.0000
14.6000 20403.0000
14.6200 20493.0000
14.6400 20466.0000
14.6600 20320.0000
14.6800 20355.0000
14.7000 20597.0000
14.7200 20552.0000
14.7400 20188.0000
14.7600 20386.0000
14.7800 20110.0000
14.8000 20240.0000
14.8200 20145.0000
14.8400 20421.0000
14.8600 20293.0000
14.8800 20101.0000
14.9000 20000.0000
14.9200 20211.0000
14.9400 20317.0000
14.9600 20096.0000
14.9800 20225.0000
15.0000 20196.0000
15.0200 20095.0000
15.0400 20231.0000
15.0600 19854.0000
15.0800 19681.0000
15.1000 20049.0000
15.1200 20173.0000
15.1400 20003.0000
15.1600 20308.0000
15.1800 20086.0000
15.2000 19669.0000
15.2200 20053.0000
15.2400 19947.0000
15.2600 20112.0000
15.2800 20004.0000
15.3000 20017.0000
15.3200 20025.0000
15.3400 19957.0000
15.3600 19898.0000
15.3800 20024.0000
15.4000 19814.0000
15.4200 19874.0000
15.4400 19670.0000
15.4600 19878.0000
15.4800 19867.0000
15.5000 20077.0000
15.5200 19992.0000
15.5400 20124.0000
15.5600 19654.0000
15.5800 19744.0000
15.6000 19699.0000
15.6200 19754.0000
15.6400 19675.0000
15.6600 19689.0000
15.6800 19974.0000
15.7000 19849.0000
15.7200 19787.0000
15.7400 19773.0000
15.7600 19609.0000
15.7800 19660.0000
15.8000 19708.0000
15.8200 19667.0000
15.8400 19672.0000
15.8600 19602.0000
15.8800 19691.0000
15.9000 19581.0000
15.9200 19611.0000
15.9400 19541.0000
15.9600 19475.0000
15.9800 19671.0000
16.0000 19271.0000
16.0200 19459.0000
16.0400 19463.0000
16.0600 19428.0000
16.0800 19404.0000
16.1000 19379.0000
16.1200 19576.0000
16.1400 19502.0000
16.1600 19449.0000
16.1800 19296.0000
16.2000 19326.0000
16.2200 19175.0000
16.2400 19038.0000
16.2600 19296.0000
16.2800 19391.0000
16.3000 19178.0000
16.3200 19210.0000
16.3400 19271.0000
16.3600 19108.0000
16.3800 19117.0000
16.4000 19154.0000
16.4200 19326.0000
16.4400 18900.0000
16.4600 19178.0000
16.4800 19207.0000
16.5000 18856.0000
16.5200 19050.0000
16.5400 19031.0000
16.5600 18906.0000
16.5800 18928.0000
16.6000 18697.0000
16.6200 18844.0000
16.6400 18948.0000
16.6600 18685.0000
16.6800 18837.0000
16.7000 18819.0000
16.7200 18852.0000
16.7400 19024.0000
16.7600 18786.0000
16.7800 18973.0000
16.8000 18749.0000
16.8200 18937.0000
16.8400 18523.0000
16.8600 18670.0000
16.8800 18754.0000
16.9000 18439.0000
16.9200 18726.0000
16.9400 18730.0000
16.9600 18424.0000
16.9800 18586.0000
17.0000 18563.0000
17.0200 18648.0000
17.0400 18716.0000
17.0600 18444.0000
17.0800 18499.0000
17.1000 18449.0000
17.1200 18549.0000
17.1400 18298.0000
17.1600 18492.0000
17.1800 18309.0000
17.2000 18206.0000
17.2200 18436.0000
17.2400 18182.0000
17.2600 18176.0000
17.2800 18192.0000
17.3000 18274.0000
17.3200 18320.0000
17.3400 18004.0000
17.3600 18291.0000
17.3800 18235.0000
17.4000 18280.0000
17.4200 18281.0000
17.4400 18213.0000
17.4600 18116.0000
17.4800 18287.0000
17.5000 18095.0000
17.5200 17930.0000
17.5400 17939.0000
17.5600 18045.0000
17.5800 17920.0000
17.6000 18036.0000
17.6200 18142.0000
17.6400 17900.0000
17.6600 17699.0000
17.6800 17841.0000
17.7000 17790.0000
17.7200 17983.0000
17.7400 17682.0000
17.7600 17718.0000
17.7800 17598.0000
17.8000 17535.0000
17.8200 17833.0000
17.8400 17812.0000
17.8600 17725.0000
17.8800 17605.0000
17.9000 17671.0000
17.9200 17602.0000
17.9400 17705.0000
17.9600 17514.0000
17.9800 17610.0000
18.0000 17737.0000
18.0200 17509.0000
18.0400 17454.0000
18.0600 17489.0000
18.0800 17429.0000
18.1000 17493.0000
18.1200 17478.0000
18.1400 17365.0000
18.1600 17198.0000
18.1800 17323.0000
18.2000 17438.0000
18.2200 17394.0000
18.2400 17233.0000
18.2600 17164.0000
18.2800 17268.0000
18.3000 17430.0000
18.3200 17140.0000
18.3400 17168.0000
18.3600 17251.0000
18.3800 17426.0000
18.4000 17085.0000
18.4200 17149.0000
18.4400 17316.0000
18.4600 17142.0000
18.4800 17271.0000
18.5000 17161.0000
18.5200 17021.0000
18.5400 17005.0000
18.5600 17102.0000
18.5800 16899.0000
18.6000 17027.0000
18.6200 16900.0000
18.6400 16984.0000
18.6600 16873.0000
18.6800 17035.0000
18.7000 16905.0000
18.7200 16704.0000
18.7400 16868.0000
18.7600 16497.0000
18.7800 16897.0000
18.8000 17002.0000
18.8200 16525.0000
18.8400 16622.0000
18.8600 16893.0000
18.8800 16811.0000
18.9000 16648.0000
18.9200 16553.0000
18.9400 16863.0000
18.9600 16481.0000
18.9800 16764.0000
19.0000 16731.0000
19.0200 16706.0000
19.0400 16649.0000
19.0600 16634.0000
19.0800 16605.0000
19.1000 16530.0000
19.1200 16634.0000
19.1400 16539.0000
19.1600 16767.0000
19.1800 16539.0000
19.2000 16294.0000
19.2200 16391.0000
19.2400 16545.0000
19.2600 16255.0000
19.2800 16436.0000
19.3000 16332.0000
19.3200 16256.0000
19.3400 16349.0000
19.3600 16521.0000
19.3800 16372.0000
19.4000 16300.0000
19.4200 16313.0000
19.4400 16343.0000
19.4600 16451.0000
19.4800 16433.0000
19.5000 16350.0000
19.5200 16452.0000
19.5400 16431.0000
19.5600 16206.0000
19.5800 16315.0000
19.6000 16089.0000
19.6200 15862.0000
19.6400 16109.0000
19.6600 16353.0000
19.6800 16202.0000
19.7000 15959.0000
19.7200 16161.0000
19.7400 15949.0000
19.7600 15884.0000
19.7800 16077.0000
19.8000 16083.0000
19.8200 16003.0000
19.8400 16014.0000
19.8600 15963.0000
19.8800 15919.0000
19.9000 15816.0000
19.9200 15945.0000
19.9400 15738.0000
19.9600 15969.0000
19.9800 15799.0000
20.0000 15858.0000
20.0200 15900.0000
20.0400 15881.0000
20.0600 15661.0000
20.0800 15733.0000
20.1000 15939.0000
20.1200 15760.0000
20.1400 15422.0000
20.1600 15549.0000
20.1800 15950.0000
20.2000 15780.0000
20.2200 15639.0000
20.2400 15677.0000
20.2600 15629.0000
20.2800 15546.0000
20.3000 15466.0000
20.3200 15571.0000
20.3400 15540.0000
20.3600 15497.0000
20.3800 15576.0000
20.4000 15698.0000
20.4200 15572.0000
20.4400 15287.0000
20.4600 15573.0000
20.4800 15617.0000
20.5000 15528.0000
20.5200 15322.0000
20.5400 15419.0000
20.5600 15219.0000
20.5800 15552.0000
20.6000 15407.0000
20.6200 15498.0000
20.6400 15375.0000
20.6600 15273.0000
20.6800 15458.0000
20.7000 15473.0000
20.7200 15137.0000
20.7400 15323.0000
20.7600 15425.0000
20.7800 15386.0000
20.8000 15076.0000
20.8200 14977.0000
20.8400 15231.0000
20.8600 15088.0000
20.8800 15042.0000
20.9000 15182.0000
20.9200 14931.0000
20.9400 15008.0000
20.9600 15117.0000
20.9800 15097.0000
21.0000 15019.0000
21.0200 15355.0000
21.0400 15131.0000
21.0600 14736.0000
21.0800 14699.0000
21.1000 14893.0000
21.1200 14909.0000
21.1400 14915.0000
21.1600 14871.0000
21.1800 14931.0000
21.2000 14753.0000
21.2200 15028.0000
21.2400 14975.0000
21.2600 14696.0000
21.2800 14741.0000
21.3000 14870.0000
21.3200 14640.0000
21.3400 14639.0000
21.3600 14650.0000
21.3800 14696.0000
21.4000 14746.0000
21.4200 14843.0000
21.4400 14466.0000
21.4600 14746.0000
21.4800 14698.0000
21.5000 14631.0000
21.5200 14666.0000
21.5400 14851.0000
21.5600 14566.0000
21.5800 14457.0000
21.6000 14460.0000
21.6200 14494.0000
21.6400 14315.0000
21.6600 14490.0000
21.6800 14323.0000
21.7000 14577.0000
21.7200 14501.0000
21.7400 14448.0000
21.7600 14305.0000
21.7800 14377.0000
21.8000 14161.0000
21.8200 14569.0000
21.8400 14477.0000
21.8600 14295.0000
21.8800 14443.0000
21.9000 14613.0000
21.9200 14199.0000
21.9400 14340.0000
21.9600 14253.0000
21.9800 14199.0000
22.0000 14247.0000
22.0200 14316.0000
22.0400 14194.0000
22.0600 14065.0000
22.0800 14208.0000
22.1000 14452.0000
22.1200 14309.0000
22.1400 14111.0000
22.1600 14297.0000
22.1800 14154.0000
22.2000 14058.0000
22.2200 14203.0000
22.2400 13989.0000
22.2600 14186.0000
22.2800 14067.0000
22.3000 14072.0000
22.3200 13986.0000
22.3400 14132.0000
22.3600 14063.0000
22.3800 14094.0000
22.4000 14002.0000
22.4200 13887.0000
22.4400 14051.0000
22.4600 13972.0000
22.4800 13914.0000
22.5000 13953.0000
22.5200 13943.0000
22.5400 13848.0000
22.5600 13856.0000
22.5800 13705.0000
22.6000 13821.0000
22.6200 13929.0000
22.6400 13877.0000
22.6600 13848.0000
22.6800 13728.0000
22.7000 13731.0000
22.7200 13738.0000
22.7400 13805.0000
22.7600 13744.0000
22.7800 13685.0000
22.8000 13767.0000
22.8200 13632.0000
22.8400 13576.0000
22.8600 13698.0000
22.8800 13622.0000
22.9000 13647.0000
22.9200 13541.0000
22.9400 13548.0000
22.9600 13599.0000
22.9800 13503.0000
23.0000 13508.0000
23.0200 13367.0000
23.0400 13601.0000
23.0600 13535.0000
23.0800 13733.0000
23.1000 13462.0000
23.1200 13549.0000
23.1400 13438.0000
23.1600 13505.0000
23.1800 13495.0000
23.2000 13468.0000
23.2200 13208.0000
23.2400 13368.0000
23.2600 13361.0000
23.2800 13458.0000
23.3000 13530.0000
23.3200 13293.0000
23.3400 13517.0000
23.3600 13253.0000
23.3800 13096.0000
23.4000 12986.0000
23.4200 13280.0000
23.4400 13415.0000
23.4600 13136.0000
23.4800 13195.0000
23.5000 13051.0000
23.5200 13216.0000
23.5400 13043.0000
23.5600 13093.0000
23.5800 13122.0000
23.6000 13137.0000
23.6200 13159.0000
23.6400 13182.0000
23.6600 13170.0000
23.6800 12951.0000
23.7000 13066.0000
23.7200 13120.0000
23.7400 13332.0000
23.7600 12917.0000
23.7800 13207.0000
23.8000 13044.0000
23.8200 13087.0000
23.8400 13072.0000
23.8600 13152.0000
23.8800 13009.0000
23.9000 13018.0000
23.9200 13118.0000
23.9400 12750.0000
23.9600 13047.0000
23.9800 13099.0000
24.0000 12875.0000
24.0200 13084.0000
24.0400 12925.0000
24.0600 13029.0000
24.0800 12778.0000
24.1000 12805.0000
24.1200 12774.0000
24.1400 12932.0000
24.1600 13026.0000
24.1800 12830.0000
24.2000 12665.0000
24.2200 12826.0000
24.2400 12837.0000
24.2600 12879.0000
24.2800 12561.0000
24.3000 12644.0000
24.3200 12654.0000
24.3400 12943.0000
24.3600 12654.0000
24.3800 12703.0000
24.4000 12684.0000
24.4200 12689.0000
24.4400 12577.0000
24.4600 12688.0000
24.4800 12683.0000
24.5000 12750.0000
24.5200 12689.0000
24.5400 12559.0000
24.5600 12502.0000
24.5800 12828.0000
24.6000 12895.0000
24.6200 12664.0000
24.6400 12518.0000
24.6600 12600.0000
24.6800 12663.0000
24.7000 12493.0000
24.7200 12506.0000
24.7400 12400.0000
24.7600 12567.0000
24.7800 12393.0000
24.8000 12470.0000
24.8200 12678.0000
24.8400 12611.0000
24.8600 12441.0000
24.8800 12741.0000
24.9000 12451.0000
24.9200 12603.0000
24.9400 12707.0000
24.9600 12613.0000
24.9800 12699.0000
25.0000 12830.0000
25.0200 12855.0000
25.0400 12959.0000
25.0600 12775.0000
25.0800 13002.0000
25.1000 12853.0000
25.1200 12552.0000
25.1400 12371.0000
25.1600 12442.0000
25.1800 12513.0000
25.2000 12532.0000
25.2200 12286.0000
25.2400 12359.0000
25.2600 12322.0000
25.2800 12315.0000
25.3000 12110.0000
25.3200 12156.0000
25.3400 12188.0000
25.3600 12253.0000
25.3800 12145.0000
25.4000 12144.0000
25.4200 12058.0000
25.4400 11978.0000
25.4600 12044.0000
25.4800 11919.0000
25.5000 11895.0000
25.5200 11979.0000
25.5400 12149.0000
25.5600 12044.0000
25.5800 11886.0000
25.6000 11990.0000
25.6200 11924.0000
25.6400 11841.0000
25.6600 11902.0000
25.6800 11984.0000
25.7000 11990.0000
25.7200 11860.0000
25.7400 11772.0000
25.7600 11768.0000
25.7800 11846.0000
25.8000 11929.0000
25.8200 11753.0000
25.8400 11702.0000
25.8600 11619.0000
25.8800 11834.0000
25.9000 11863.0000
25.9200 11774.0000
25.9400 11726.0000
25.9600 11720.0000
25.9800 11718.0000
26.0000 11864.0000
26.0200 11545.0000
26.0400 11630.0000
26.0600 11560.0000
26.0800 11367.0000
26.1000 11501.0000
26.1200 11544.0000
26.1400 11602.0000
26.1600 11573.0000
26.1800 11665.0000
26.2000 11646.0000
26.2200 11448.0000
26.2400 11606.0000
26.2600 11398.0000
26.2800 11534.0000
26.3000 11513.0000
26.3200 11676.0000
26.3400 11619.0000
26.3600 11314.0000
26.3800 11566.0000
26.4000 11331.0000
26.4200 11581.0000
26.4400 11534.0000
26.4600 11559.0000
26.4800 11427.0000
26.5000 11504.0000
26.5200 11442.0000
26.5400 11365.0000
26.5600 11339.0000
26.5800 11142.0000
26.6000 11482.0000
26.6200 11325.0000
26.6400 11366.0000
26.6600 11331.0000
26.6800 11325.0000
26.7000 11338.0000
26.7200 11186.0000
26.7400 11366.0000
26.7600 11103.0000
26.7800 11205.0000
26.8000 11141.0000
26.8200 11222.0000
26.8400 11278.0000
26.8600 11194.0000
26.8800 11206.0000
26.9000 11192.0000
26.9200 11186.0000
26.9400 11128.0000
26.9600 11212.0000
26.9800 11148.0000
27.0000 11013.0000
27.0200 11213.0000
27.0400 11124.0000
27.0600 11177.0000
27.0800 11198.0000
27.1000 11060.0000
27.1200 11156.0000
27.1400 11299.0000
27.1600 11314.0000
27.1800 11221.0000
27.2000 11304.0000
27.2200 11194.0000
27.2400 11327.0000
27.2600 11327.0000
27.2800 11094.0000
27.3000 11221.0000
27.3200 11080.0000
27.3400 11059.0000
27.3600 11072.0000
27.3800 10807.0000
27.4000 11082.0000
27.4200 11130.0000
27.4400 10938.0000
27.4600 10840.0000
27.4800 10963.0000
27.5000 10745.0000
27.5200 10854.0000
27.5400 10850.0000
27.5600 10890.0000
27.5800 10742.0000
27.6000 10953.0000
27.6200 10836.0000
27.6400 10892.0000
27.6600 10852.0000
27.6800 10937.0000
27.7000 10853.0000
27.7200 10753.0000
27.7400 10897.0000
27.7600 10849.0000
27.7800 10719.0000
27.8000 10716.0000
27.8200 10790.0000
27.8400 11026.0000
27.8600 10540.0000
27.8800 10779.0000
27.9000 10728.0000
27.9200 10705.0000
27.9400 10786.0000
27.9600 10794.0000
27.9800 10515.0000
28.0000 10785.0000
28.0200 10644.0000
28.0400 10700.0000
28.0600 10850.0000
28.0800 10682.0000
28.1000 10693.0000
28.1200 10670.0000
28.1400 10689.0000
28.1600 10700.0000
28.1800 10594.0000
28.2000 10598.0000
28.2200 10622.0000
28.2400 10535.0000
28.2600 10484.0000
28.2800 10521.0000
28.3000 10505.0000
28.3200 10669.0000
28.3400 10585.0000
28.3600 10475.0000
28.3800 10491.0000
28.4000 10375.0000
28.4200 10511.0000
28.4400 10636.0000
28.4600 10422.0000
28.4800 10406.0000
28.5000 10449.0000
28.5200 10436.0000
28.5400 10548.0000
28.5600 10486.0000
28.5800 10231.0000
28.6000 10332.0000
28.6200 10466.0000
28.6400 10398.0000
28.6600 10339.0000
28.6800 10243.0000
28.7000 10507.0000
28.7200 10338.0000
28.7400 10461.0000
28.7600 10367.0000
28.7800 10462.0000
28.8000 10422.0000
28.8200 10335.0000
28.8400 10417.0000
28.8600 10326.0000
28.8800 10356.0000
28.9000 10518.0000
28.9200 10230.0000
28.9400 10312.0000
28.9600 10618.0000
28.9800 10592.0000
29.0000 10600.0000
29.0200 10434.0000
29.0400 10495.0000
29.0600 10530.0000
29.0800 10572.0000
29.1000 10658.0000
29.1200 10500.0000
29.1400 10700.0000
29.1600 10812.0000
29.1800 10865.0000
29.2000 10818.0000
29.2200 10581.0000
29.2400 10872.0000
29.2600 10861.0000
29.2800 10714.0000
29.3000 10888.0000
29.3200 10629.0000
29.3400 10706.0000
29.3600 10598.0000
29.3800 10696.0000
29.4000 10525.0000
29.4200 10555.0000
29.4400 10484.0000
29.4600 10507.0000
29.4800 10691.0000
29.5000 10378.0000
29.5200 10499.0000
29.5400 10361.0000
29.5600 10468.0000
29.5800 10545.0000
29.6000 10417.0000
29.6200 10335.0000
29.6400 10686.0000
29.6600 10762.0000
29.6800 10530.0000
29.7000 10483.0000
29.7200 10854.0000
29.7400 10726.0000
29.7600 10830.0000
29.7800 10807.0000
29.8000 10942.0000
29.8200 11095.0000
29.8400 11202.0000
29.8600 11311.0000
29.8800 11368.0000
29.9000 11631.0000
29.9200 12177.0000
29.9400 12481.0000
29.9600 13065.0000
29.9800 13732.0000
30.0000 14330.0000
30.0200 15375.0000
30.0400 16995.0000
30.0600 18591.0000
30.0800 21020.0000
30.1000 23562.0000
30.1200 26286.0000
30.1400 30287.0000
30.1600 33289.0000
30.1800 35498.0000
30.2000 36218.0000
30.2200 36604.0000
30.2400 36171.0000
30.2600 34492.0000
30.2800 32109.0000
30.3000 29471.0000
30.3200 27085.0000
30.3400 24474.0000
30.3600 22220.0000
30.3800 20173.0000
30.4000 18338.0000
30.4200 17041.0000
30.4400 15797.0000
30.4600 14640.0000
30.4800 14259.0000
30.5000 13374.0000
30.5200 12873.0000
30.5400 12491.0000
30.5600 11999.0000
30.5800 11724.0000
30.6000 11537.0000
30.6200 11236.0000
30.6400 11016.0000
30.6600 10787.0000
30.6800 10530.0000
30.7000 10780.0000
30.7200 10580.0000
30.7400 10471.0000
30.7600 10337.0000
30.7800 10227.0000
30.8000 10342.0000
30.8200 10332.0000
30.8400 10259.0000
30.8600 9960.0000
30.8800 9984.0000
30.9000 9984.0000
30.9200 9874.0000
30.9400 9994.0000
30.9600 9910.0000
30.9800 9910.0000
31.0000 9883.0000
31.0200 9858.0000
31.0400 9702.0000
31.0600 9759.0000
31.0800 9840.0000
31.1000 9732.0000
31.1200 9706.0000
31.1400 9623.0000
31.1600 9566.0000
31.1800 9667.0000
31.2000 9495.0000
31.2200 9364.0000
31.2400 9553.0000
31.2600 9433.0000
31.2800 9490.0000
31.3000 9595.0000
31.3200 9278.0000
31.3400 9623.0000
31.3600 9376.0000
31.3800 9478.0000
31.4000 9334.0000
31.4200 9320.0000
31.4400 9243.0000
31.4600 9184.0000
31.4800 9370.0000
31.5000 9360.0000
31.5200 9286.0000
31.5400 9261.0000
31.5600 9317.0000
31.5800 9054.0000
31.6000 9235.0000
31.6200 9289.0000
31.6400 9100.0000
31.6600 9047.0000
31.6800 9146.0000
31.7000 9356.0000
31.7200 9150.0000
31.7400 9262.0000
31.7600 9348.0000
31.7800 9233.0000
31.8000 9249.0000
31.8200 9040.0000
31.8400 8977.0000
31.8600 9114.0000
31.8800 9098.0000
31.9000 9016.0000
31.9200 8925.0000
31.9400 9291.0000
31.9600 9034.0000
31.9800 8990.0000
32.0000 8956.0000
32.0200 9127.0000
32.0400 8919.0000
32.0600 9161.0000
32.0800 8775.0000
32.1000 8938.0000
32.1200 8941.0000
32.1400 9012.0000
32.1600 8985.0000
32.1800 8955.0000
32.2000 8795.0000
32.2200 8829.0000
32.2400 8879.0000
32.2600 8786.0000
32.2800 8980.0000
32.3000 8804.0000
32.3200 8776.0000
32.3400 8872.0000
32.3600 8595.0000
32.3800 8672.0000
32.4000 8951.0000
32.4200 8875.0000
32.4400 8783.0000
32.4600 8916.0000
32.4800 8718.0000
32.5000 8759.0000
32.5200 8718.0000
32.5400 8682.0000
32.5600 8730.0000
32.5800 8562.0000
32.6000 8820.0000
32.6200 8578.0000
32.6400 8510.0000
32.6600 8719.0000
32.6800 8692.0000
32.7000 8703.0000
32.7200 8760.0000
32.7400 8572.0000
32.7600 8645.0000
32.7800 8623.0000
32.8000 8451.0000
32.8200 8475.0000
32.8400 8472.0000
32.8600 8713.0000
32.8800 8581.0000
32.9000 8529.0000
32.9200 8634.0000
32.9400 8589.0000
32.9600 8642.0000
32.9800 8375.0000
33.0000 8480.0000
33.0200 8230.0000
33.0400 8400.0000
33.0600 8467.0000
33.0800 8387.0000
33.1000 8459.0000
33.1200 8362.0000
33.1400 8353.0000
33.1600 8327.0000
33.1800 8464.0000
33.2000 8422.0000
33.2200 8287.0000
33.2400 8516.0000
33.2600 8372.0000
33.2800 8426.0000
33.3000 8290.0000
33.3200 8236.0000
33.3400 8377.0000
33.3600 8300.0000
33.3800 8333.0000
33.4000 8225.0000
33.4200 8374.0000
33.4400 8053.0000
33.4600 8080.0000
33.4800 8098.0000
33.5000 8233.0000
33.5200 8249.0000
33.5400 8254.0000
33.5600 8128.0000
33.5800 8269.0000
33.6000 8159.0000
33.6200 8064.0000
33.6400 8214.0000
33.6600 8222.0000
33.6800 8085.0000
33.7000 8048.0000
33.7200 8144.0000
33.7400 8153.0000
33.7600 8048.0000
33.7800 8023.0000
33.8000 8013.0000
33.8200 8130.0000
33.8400 8038.0000
33.8600 8046.0000
33.8800 8016.0000
33.9000 8041.0000
33.9200 8072.0000
33.9400 7983.0000
33.9600 7889.0000
33.9800 8096.0000
34.0000 7958.0000
34.0200 7848.0000
34.0400 8021.0000
34.0600 7815.0000
34.0800 8058.0000
34.1000 8067.0000
34.1200 8036.0000
34.1400 7814.0000
34.1600 7830.0000
34.1800 7971.0000
34.2000 7932.0000
34.2200 7925.0000
34.2400 7811.0000
34.2600 7972.0000
34.2800 7890.0000
34.3000 8031.0000
34.3200 7849.0000
34.3400 7788.0000
34.3600 7857.0000
34.3800 7884.0000
34.4000 7893.0000
34.4200 7913.0000
34.4400 7949.0000
34.4600 7849.0000
34.4800 7879.0000
34.5000 7714.0000
34.5200 7617.0000
34.5400 7744.0000
34.5600 7774.0000
34.5800 7706.0000
34.6000 7717.0000
34.6200 7807.0000
34.6400 7685.0000
34.6600 7777.0000
34.6800 7420.0000
34.7000 7644.0000
34.7200 7696.0000
34.7400 7674.0000
34.7600 7669.0000
34.7800 7724.0000
34.8000 7693.0000
34.8200 7717.0000
34.8400 7744.0000
34.8600 7458.0000
34.8800 7654.0000
34.9000 7629.0000
34.9200 7531.0000
34.9400 7642.0000
34.9600 7600.0000
34.9800 7600.0000
35.0000 7664.0000
35.0200 7572.0000
35.0400 7556.0000
35.0600 7416.0000
35.0800 7460.0000
35.1000 7540.0000
35.1200 7485.0000
35.1400 7507.0000
35.1600 7758.0000
35.1800 7460.0000
35.2000 7633.0000
35.2200 7684.0000
35.2400 7523.0000
35.2600 7469.0000
35.2800 7502.0000
35.3000 7600.0000
35.3200 7401.0000
35.3400 7395.0000
35.3600 7426.0000
35.3800 7345.0000
35.4000 7402.0000
35.4200 7427.0000
35.4400 7317.0000
35.4600 7211.0000
35.4800 7475.0000
35.5000 7377.0000
35.5200 7368.0000
35.5400 7293.0000
35.5600 7298.0000
35.5800 7333.0000
35.6000 7449.0000
35.6200 7427.0000
35.6400 7404.0000
35.6600 7535.0000
35.6800 7452.0000
35.7000 7518.0000
35.7200 7488.0000
35.7400 7321.0000
35.7600 7335.0000
35.7800 7475.0000
35.8000 7369.0000
35.8200 7332.0000
35.8400 7379.0000
35.8600 7302.0000
35.8800 7341.0000
35.9000 7348.0000
35.9200 7193.0000
35.9400 7251.0000
35.9600 7299.0000
35.9800 7456.0000
36.0000 7368.0000
36.0200 7209.0000
36.0400 7283.0000
36.0600 7153.0000
36.0800 7303.0000
36.1000 7092.0000
36.1200 7080.0000
36.1400 7274.0000
36.1600 7089.0000
36.1800 7254.0000
36.2000 7167.0000
36.2200 7152.0000
36.2400 7048.0000
36.2600 7171.0000
36.2800 7218.0000
36.3000 7149.0000
36.3200 7114.0000
36.3400 7145.0000
36.3600 7038.0000
36.3800 6928.0000
36.4000 7161.0000
36.4200 7163.0000
36.4400 7161.0000
36.4600 7050.0000
36.4800 7286.0000
36.5000 7111.0000
36.5200 7265.0000
36.5400 7186.0000
36.5600 7175.0000
36.5800 7195.0000
36.6000 7294.0000
36.6200 7144.0000
36.6400 7295.0000
36.6600 7184.0000
36.6800 7100.0000
36.7000 7274.0000
36.7200 7461.0000
36.7400 7473.0000
36.7600 7438.0000
36.7800 7542.0000
36.8000 7536.0000
36.8200 7710.0000
36.8400 7784.0000
36.8600 8008.0000
36.8800 8118.0000
36.9000 8158.0000
36.9200 8101.0000
36.9400 8150.0000
36.9600 8284.0000
36.9800 8298.0000
37.0000 8195.0000
37.0200 8136.0000
37.0400 8153.0000
37.0600 7858.0000
37.0800 7844.0000
37.1000 7561.0000
37.1200 7619.0000
37.1400 7398.0000
37.1600 7463.0000
37.1800 7334.0000
37.2000 7208.0000
37.2200 7188.0000
37.2400 7237.0000
37.2600 7099.0000
37.2800 7119.0000
37.3000 7003.0000
37.3200 6880.0000
37.3400 7040.0000
37.3600 7021.0000
37.3800 6845.0000
37.4000 6928.0000
37.4200 6800.0000
37.4400 6966.0000
37.4600 6783.0000
37.4800 6902.0000
37.5000 6797.0000
37.5200 6819.0000
37.5400 6739.0000
37.5600 6921.0000
37.5800 6684.0000
37.6000 6815.0000
37.6200 6899.0000
37.6400 6828.0000
37.6600 6846.0000
37.6800 6854.0000
37.7000 6801.0000
37.7200 7014.0000
37.7400 6900.0000
37.7600 6913.0000
37.7800 7008.0000
37.8000 6915.0000
37.8200 6900.0000
37.8400 7004.0000
37.8600 7009.0000
37.8800 6957.0000
37.9000 7115.0000
37.9200 7084.0000
37.9400 7026.0000
37.9600 7128.0000
37.9800 7167.0000
38.0000 7229.0000
38.0200 7309.0000
38.0400 7576.0000
38.0600 7800.0000
38.0800 7897.0000
38.1000 8079.0000
38.1200 8430.0000
38.1400 8594.0000
38.1600 9006.0000
38.1800 9600.0000
38.2000 9897.0000
38.2200 10467.0000
38.2400 10969.0000
38.2600 11451.0000
38.2800 11848.0000
38.3000 12193.0000
38.3200 12118.0000
38.3400 12181.0000
38.3600 12257.0000
38.3800 11905.0000
38.4000 11216.0000
38.4200 10860.0000
38.4400 10324.0000
38.4600 9818.0000
38.4800 9494.0000
38.5000 9028.0000
38.5200 8760.0000
38.5400 8361.0000
38.5600 8088.0000
38.5800 7837.0000
38.6000 7629.0000
38.6200 7442.0000
38.6400 7263.0000
38.6600 6979.0000
38.6800 7244.0000
38.7000 7045.0000
38.7200 6879.0000
38.7400 6973.0000
38.7600 6908.0000
38.7800 7051.0000
38.8000 7042.0000
38.8200 7125.0000
38.8400 6910.0000
38.8600 7187.0000
38.8800 7186.0000
38.9000 7410.0000
38.9200 7269.0000
38.9400 7348.0000
38.9600 7224.0000
38.9800 7195.0000
39.0000 7212.0000
39.0200 7135.0000
39.0400 6948.0000
39.0600 6959.0000
39.0800 6919.0000
39.1000 6692.0000
39.1200 6678.0000
39.1400 6737.0000
39.1600 6623.0000
39.1800 6674.0000
39.2000 6666.0000
39.2200 6401.0000
39.2400 6571.0000
39.2600 6635.0000
39.2800 6310.0000
39.3000 6561.0000
39.3200 6572.0000
39.3400 6564.0000
39.3600 6560.0000
39.3800 6439.0000
39.4000 6582.0000
39.4200 6592.0000
39.4400 6649.0000
39.4600 6611.0000
39.4800 6541.0000
39.5000 6523.0000
39.5200 6653.0000
39.5400 6561.0000
39.5600 6462.0000
39.5800 6522.0000
39.6000 6631.0000
39.6200 6443.0000
39.6400 6422.0000
39.6600 6504.0000
39.6800 6499.0000
39.7000 6468.0000
39.7200 6487.0000
39.7400 6527.0000
39.7600 6650.0000
39.7800 6487.0000
39.8000 6644.0000
39.8200 6408.0000
39.8400 6576.0000
39.8600 6630.0000
39.8800 6677.0000
39.9000 6604.0000
39.9200 6730.0000
39.9400 6650.0000
39.9600 6840.0000
39.9800 6889.0000
40.0000 6899.0000
40.0200 6933.0000
40.0400 6962.0000
40.0600 6930.0000
40.0800 6980.0000
40.1000 6810.0000
40.1200 6742.0000
40.1400 6773.0000
40.1600 6829.0000
40.1800 6620.0000
40.2000 6715.0000
40.2200 6699.0000
40.2400 6719.0000
40.2600 6717.0000
40.2800 6753.0000
40.3000 6658.0000
40.3200 6584.0000
40.3400 6643.0000
40.3600 6477.0000
40.3800 6465.0000
40.4000 6540.0000
40.4200 6463.0000
40.4400 6581.0000
40.4600 6728.0000
40.4800 6720.0000
40.5000 6792.0000
40.5200 6660.0000
40.5400 6839.0000
40.5600 6857.0000
40.5800 7006.0000
40.6000 7018.0000
40.6200 7169.0000
40.6400 7412.0000
40.6600 7458.0000
40.6800 7622.0000
40.7000 7567.0000
40.7200 7705.0000
40.7400 7899.0000
40.7600 7687.0000
40.7800 7649.0000
40.8000 7568.0000
40.8200 7541.0000
40.8400 7413.0000
40.8600 7297.0000
40.8800 7220.0000
40.9000 7102.0000
40.9200 6919.0000
40.9400 7002.0000
40.9600 6768.0000
40.9800 6718.0000
41.0000 6555.0000
41.0200 6789.0000
41.0400 6636.0000
41.0600 6601.0000
41.0800 6625.0000
41.1000 6453.0000
41.1200 6678.0000
41.1400 6563.0000
41.1600 6553.0000
41.1800 6526.0000
41.2000 6465.0000
41.2200 6554.0000
41.2400 6686.0000
41.2600 6471.0000
41.2800 6621.0000
41.3000 6538.0000
41.3200 6686.0000
41.3400 6659.0000
41.3600 6632.0000
41.3800 6683.0000
41.4000 6658.0000
41.4200 6720.0000
41.4400 6801.0000
41.4600 6857.0000
41.4800 6858.0000
41.5000 6946.0000
41.5200 6961.0000
41.5400 7170.0000
41.5600 7197.0000
41.5800 7294.0000
41.6000 7535.0000
41.6200 7541.0000
41.6400 7888.0000
41.6600 7873.0000
41.6800 8249.0000
41.7000 8313.0000
41.7200 8626.0000
41.7400 9152.0000
41.7600 9545.0000
41.7800 9708.0000
41.8000 9981.0000
41.8200 10171.0000
41.8400 10889.0000
41.8600 11369.0000
41.8800 12056.0000
41.9000 12552.0000
41.9200 13287.0000
41.9400 14096.0000
41.9600 14329.0000
41.9800 14710.0000
42.0000 14655.0000
42.0200 14465.0000
42.0400 14269.0000
42.0600 13800.0000
42.0800 13481.0000
42.1000 12742.0000
42.1200 12031.0000
42.1400 11566.0000
42.1600 11175.0000
42.1800 10563.0000
42.2000 10075.0000
42.2200 10060.0000
42.2400 9701.0000
42.2600 9550.0000
42.2800 9457.0000
42.3000 9330.0000
42.3200 9245.0000
42.3400 9406.0000
42.3600 9437.0000
42.3800 9628.0000
42.4000 9641.0000
42.4200 9879.0000
42.4400 10215.0000
42.4600 10311.0000
42.4800 10799.0000
42.5000 11193.0000
42.5200 11344.0000
42.5400 11693.0000
42.5600 11978.0000
42.5800 12421.0000
42.6000 12549.0000
42.6200 12858.0000
42.6400 13174.0000
42.6600 13412.0000
42.6800 13761.0000
42.7000 13970.0000
42.7200 14149.0000
42.7400 14258.0000
42.7600 14008.0000
42.7800 14190.0000
42.8000 13968.0000
42.8200 13824.0000
42.8400 13832.0000
42.8600 13867.0000
42.8800 14014.0000
42.9000 13966.0000
42.9200 14183.0000
42.9400 14361.0000
42.9600 14814.0000
42.9800 15329.0000
43.0000 15898.0000
43.0200 16956.0000
43.0400 18480.0000
43.0600 20088.0000
43.0800 21837.0000
43.1000 24030.0000
43.1200 27161.0000
43.1400 30680.0000
43.1600 35315.0000
43.1800 41442.0000
43.2000 48753.0000
43.2200 57547.0000
43.2400 67516.0000
43.2600 77431.0000
43.2800 85772.0000
43.3000 92290.0000
43.3200 93956.0000
43.3400 92580.0000
43.3600 89902.0000
43.3800 86755.0000
43.4000 83837.0000
43.4200 78976.0000
43.4400 73390.0000
43.4600 65996.0000
43.4800 58722.0000
43.5000 52409.0000
43.5200 47399.0000
43.5400 42637.0000
43.5600 38537.0000
43.5800 35099.0000
43.6000 31730.0000
43.6200 29947.0000
43.6400 27721.0000
43.6600 26688.0000
43.6800 25289.0000
43.7000 24442.0000
43.7200 24145.0000
43.7400 24074.0000
43.7600 24270.0000
43.7800 24968.0000
43.8000 25835.0000
43.8200 26532.0000
43.8400 27916.0000
43.8600 29243.0000
43.8800 30566.0000
43.9000 31105.0000
43.9200 31780.0000
43.9400 31522.0000
43.9600 31759.0000
43.9800 30776.0000
44.0000 29509.0000
44.0200 28294.0000
44.0400 26406.0000
44.0600 24841.0000
44.0800 22693.0000
44.1000 21036.0000
44.1200 19297.0000
44.1400 17575.0000
44.1600 16309.0000
44.1800 14808.0000
44.2000 13555.0000
44.2200 12682.0000
44.2400 11857.0000
44.2600 11004.0000
44.2800 10621.0000
44.3000 10024.0000
44.3200 9527.0000
44.3400 9304.0000
44.3600 8895.0000
44.3800 8652.0000
44.4000 8228.0000
44.4200 7946.0000
44.4400 7692.0000
44.4600 7693.0000
44.4800 7532.0000
44.5000 7538.0000
44.5200 7367.0000
44.5400 7198.0000
44.5600 7225.0000
44.5800 7024.0000
44.6000 7002.0000
44.6200 7013.0000
44.6400 6963.0000
44.6600 7013.0000
44.6800 7066.0000
44.7000 6961.0000
44.7200 6807.0000
44.7400 6835.0000
44.7600 6927.0000
44.7800 6881.0000
44.8000 7074.0000
44.8200 6964.0000
44.8400 7017.0000
44.8600 6924.0000
44.8800 6978.0000
44.9000 7094.0000
44.9200 7480.0000
44.9400 7317.0000
44.9600 7480.0000
44.9800 7483.0000
45.0000 7720.0000
45.0200 7522.0000
45.0400 8009.0000
45.0600 7759.0000
45.0800 7745.0000
45.1000 7877.0000
45.1200 7813.0000
45.1400 7340.0000
45.1600 7482.0000
45.1800 7260.0000
45.2000 7189.0000
45.2200 6921.0000
45.2400 6992.0000
45.2600 6796.0000
45.2800 6630.0000
45.3000 6600.0000
45.3200 6297.0000
45.3400 6445.0000
45.3600 6281.0000
45.3800 6008.0000
45.4000 6099.0000
45.4200 6203.0000
45.4400 6036.0000
45.4600 5992.0000
45.4800 6066.0000
45.5000 5856.0000
45.5200 5774.0000
45.5400 5810.0000
45.5600 5696.0000
45.5800 5889.0000
45.6000 5801.0000
45.6200 5644.0000
45.6400 5653.0000
45.6600 5750.0000
45.6800 5676.0000
45.7000 5700.0000
45.7200 5426.0000
45.7400 5606.0000
45.7600 5643.0000
45.7800 5577.0000
45.8000 5416.0000
45.8200 5571.0000
45.8400 5635.0000
45.8600 5575.0000
45.8800 5619.0000
45.9000 5629.0000
45.9200 5525.0000
45.9400 5548.0000
45.9600 5624.0000
45.9800 5505.0000
46.0000 5489.0000
46.0200 5585.0000
46.0400 5520.0000
46.0600 5698.0000
46.0800 5740.0000
46.1000 5698.0000
46.1200 5626.0000
46.1400 5618.0000
46.1600 5694.0000
46.1800 5643.0000
46.2000 5692.0000
46.2200 5614.0000
46.2400 5543.0000
46.2600 5670.0000
46.2800 5698.0000
46.3000 5677.0000
46.3200 5639.0000
46.3400 5558.0000
46.3600 5537.0000
46.3800 5480.0000
46.4000 5525.0000
46.4200 5457.0000
46.4400 5495.0000
46.4600 5334.0000
46.4800 5447.0000
46.5000 5338.0000
46.5200 5360.0000
46.5400 5406.0000
46.5600 5498.0000
46.5800 5283.0000
46.6000 5235.0000
46.6200 5303.0000
46.6400 5303.0000
46.6600 5271.0000
46.6800 5294.0000
46.7000 5327.0000
46.7200 5381.0000
46.7400 5246.0000
46.7600 5243.0000
46.7800 5226.0000
46.8000 5251.0000
46.8200 5283.0000
46.8400 5347.0000
46.8600 5173.0000
46.8800 5147.0000
46.9000 5250.0000
46.9200 5231.0000
46.9400 5193.0000
46.9600 5151.0000
46.9800 5174.0000
47.0000 5244.0000
47.0200 5177.0000
47.0400 5218.0000
47.0600 5155.0000
47.0800 5199.0000
47.1000 5045.0000
47.1200 5239.0000
47.1400 5187.0000
47.1600 5022.0000
47.1800 5012.0000
47.2000 5117.0000
47.2200 5078.0000
47.2400 5054.0000
47.2600 5003.0000
47.2800 5134.0000
47.3000 5294.0000
47.3200 5174.0000
47.3400 5147.0000
47.3600 5184.0000
47.3800 5145.0000
47.4000 5241.0000
47.4200 5145.0000
47.4400 5201.0000
47.4600 5178.0000
47.4800 5150.0000
47.5000 5031.0000
47.5200 5174.0000
47.5400 5148.0000
47.5600 5203.0000
47.5800 5093.0000
47.6000 5042.0000
47.6200 5163.0000
47.6400 5150.0000
47.6600 5303.0000
47.6800 5212.0000
47.7000 5279.0000
47.7200 5148.0000
47.7400 5095.0000
47.7600 5274.0000
47.7800 5232.0000
47.8000 5140.0000
47.8200 5236.0000
47.8400 5103.0000
47.8600 5127.0000
47.8800 5274.0000
47.9000 4990.0000
47.9200 5150.0000
47.9400 5232.0000
47.9600 5204.0000
47.9800 5087.0000
48.0000 5073.0000
48.0200 5115.0000
48.0400 4971.0000
48.0600 4994.0000
48.0800 5114.0000
48.1000 4973.0000
48.1200 4990.0000
48.1400 5093.0000
48.1600 4873.0000
48.1800 5063.0000
48.2000 5041.0000
48.2200 4987.0000
48.2400 5020.0000
48.2600 4945.0000
48.2800 4925.0000
48.3000 4842.0000
48.3200 4960.0000
48.3400 4846.0000
48.3600 4852.0000
48.3800 4896.0000
48.4000 4934.0000
48.4200 4923.0000
48.4400 4945.0000
48.4600 4965.0000
48.4800 4836.0000
48.5000 4945.0000
48.5200 4890.0000
48.5400 4806.0000
48.5600 4935.0000
48.5800 4799.0000
48.6000 4836.0000
48.6200 4694.0000
48.6400 4950.0000
48.6600 4927.0000
48.6800 4869.0000
48.7000 4830.0000
48.7200 4777.0000
48.7400 4819.0000
48.7600 4872.0000
48.7800 4828.0000
48.8000 4997.0000
48.8200 4926.0000
48.8400 4918.0000
48.8600 4865.0000
48.8800 4763.0000
48.9000 4805.0000
48.9200 4851.0000
48.9400 4800.0000
48.9600 4810.0000
48.9800 4831.0000
49.0000 4872.0000
49.0200 4906.0000
49.0400 4824.0000
49.0600 4847.0000
49.0800 4818.0000
49.1000 4752.0000
49.1200 4631.0000
49.1400 4796.0000
49.1600 4763.0000
49.1800 4901.0000
49.2000 4757.0000
49.2200 4770.0000
49.2400 4811.0000
49.2600 4733.0000
49.2800 4768.0000
49.3000 4648.0000
49.3200 4765.0000
49.3400 4779.0000
49.3600 4719.0000
49.3800 4760.0000
49.4000 4646.0000
49.4200 4578.0000
49.4400 4578.0000
49.4600 4647.0000
49.4800 4828.0000
49.5000 4814.0000
49.5200 4786.0000
49.5400 4739.0000
49.5600 4520.0000
49.5800 4657.0000
49.6000 4747.0000
49.6200 4771.0000
49.6400 4722.0000
49.6600 4705.0000
49.6800 4738.0000
49.7000 4714.0000
49.7200 4635.0000
49.7400 4817.0000
49.7600 4712.0000
49.7800 4853.0000
49.8000 4844.0000
49.8200 4814.0000
49.8400 4791.0000
49.8600 4811.0000
49.8800 4883.0000
49.9000 4792.0000
49.9200 4717.0000
49.9400 4778.0000
49.9600 4800.0000
49.9800 4796.0000
50.0000 4805.0000
50.0200 4979.0000
50.0400 4691.0000
50.0600 4781.0000
50.0800 4950.0000
50.1000 4924.0000
50.1200 4829.0000
50.1400 4839.0000
50.1600 4961.0000
50.1800 5154.0000
50.2000 5041.0000
50.2200 5041.0000
50.2400 5126.0000
50.2600 5148.0000
50.2800 5152.0000
50.3000 5239.0000
50.3200 5091.0000
50.3400 5186.0000
50.3600 5008.0000
50.3800 4956.0000
50.4000 5062.0000
50.4200 5123.0000
50.4400 5062.0000
50.4600 4995.0000
50.4800 4983.0000
50.5000 5045.0000
50.5200 5032.0000
50.5400 4964.0000
50.5600 4902.0000
50.5800 4703.0000
50.6000 4807.0000
50.6200 4809.0000
50.6400 4716.0000
50.6600 4755.0000
50.6800 4698.0000
50.7000 4736.0000
50.7200 4793.0000
50.7400 4702.0000
50.7600 4743.0000
50.7800 4667.0000
50.8000 4664.0000
50.8200 4563.0000
50.8400 4571.0000
50.8600 4586.0000
50.8800 4686.0000
50.9000 4554.0000
50.9200 4619.0000
50.9400 4631.0000
50.9600 4606.0000
50.9800 4560.0000
51.0000 4567.0000
51.0200 4560.0000
51.0400 4566.0000
51.0600 4562.0000
51.0800 4538.0000
51.1000 4578.0000
51.1200 4614.0000
51.1400 4579.0000
51.1600 4523.0000
51.1800 4597.0000
51.2000 4530.0000
51.2200 4543.0000
51.2400 4545.0000
51.2600 4495.0000
51.2800 4487.0000
51.3000 4527.0000
51.3200 4486.0000
51.3400 4450.0000
51.3600 4576.0000
51.3800 4577.0000
51.4000 4564.0000
51.4200 4556.0000
51.4400 4533.0000
51.4600 4591.0000
51.4800 4485.0000
51.5000 4469.0000
51.5200 4560.0000
51.5400 4588.0000
51.5600 4440.0000
51.5800 4522.0000
51.6000 4573.0000
51.6200 4569.0000
51.6400 4453.0000
51.6600 4587.0000
51.6800 4565.0000
51.7000 4568.0000
51.7200 4406.0000
51.7400 4525.0000
51.7600 4455.0000
51.7800 4565.0000
51.8000 4501.0000
51.8200 4536.0000
51.8400 4585.0000
51.8600 4557.0000
51.8800 4429.0000
51.9000 4654.0000
51.9200 4630.0000
51.9400 4631.0000
51.9600 4496.0000
51.9800 4618.0000
52.0000 4678.0000
52.0200 4664.0000
52.0400 4654.0000
52.0600 4765.0000
52.0800 4701.0000
52.1000 4685.0000
52.1200 4615.0000
52.1400 4824.0000
52.1600 4759.0000
52.1800 4525.0000
52.2000 4550.0000
52.2200 4463.0000
52.2400 4527.0000
52.2600 4578.0000
52.2800 4501.0000
52.3000 4545.0000
52.3200 4491.0000
52.3400 4501.0000
52.3600 4563.0000
52.3800 4475.0000
52.4000 4516.0000
52.4200 4491.0000
52.4400 4539.0000
52.4600 4494.0000
52.4800 4480.0000
52.5000 4435.0000
52.5200 4423.0000
52.5400 4475.0000
52.5600 4400.0000
52.5800 4499.0000
52.6000 4431.0000
52.6200 4419.0000
52.6400 4249.0000
52.6600 4428.0000
52.6800 4525.0000
52.7000 4446.0000
52.7200 4500.0000
52.7400 4461.0000
52.7600 4411.0000
52.7800 4462.0000
52.8000 4508.0000
52.8200 4316.0000
52.8400 4639.0000
52.8600 4614.0000
52.8800 4373.0000
52.9000 4545.0000
52.9200 4539.0000
52.9400 4530.0000
52.9600 4632.0000
52.9800 4530.0000
53.0000 4511.0000
53.0200 4588.0000
53.0400 4496.0000
53.0600 4583.0000
53.0800 4617.0000
53.1000 4520.0000
53.1200 4675.0000
53.1400 4516.0000
53.1600 4736.0000
53.1800 4797.0000
53.2000 4766.0000
53.2200 4852.0000
53.2400 4923.0000
53.2600 4878.0000
53.2800 4855.0000
53.3000 4911.0000
53.3200 4980.0000
53.3400 4927.0000
53.3600 5004.0000
53.3800 4960.0000
53.4000 5065.0000
53.4200 5003.0000
53.4400 5155.0000
53.4600 5128.0000
53.4800 5287.0000
53.5000 5399.0000
53.5200 5528.0000
53.5400 5469.0000
53.5600 5666.0000
53.5800 5855.0000
53.6000 5923.0000
53.6200 6202.0000
53.6400 6405.0000
53.6600 6789.0000
53.6800 7223.0000
53.7000 7728.0000
53.7200 8119.0000
53.7400 8529.0000
53.7600 8982.0000
53.7800 9180.0000
53.8000 9179.0000
53.8200 9315.0000
53.8400 9196.0000
53.8600 9106.0000
53.8800 8946.0000
53.9000 8842.0000
53.9200 8715.0000
53.9400 8390.0000
53.9600 8171.0000
53.9800 7809.0000
54.0000 7546.0000
54.0200 7270.0000
54.0400 6925.0000
54.0600 6626.0000
54.0800 6607.0000
54.1000 6182.0000
54.1200 6099.0000
54.1400 5764.0000
54.1600 5709.0000
54.1800 5688.0000
54.2000 5524.0000
54.2200 5167.0000
54.2400 5216.0000
54.2600 5298.0000
54.2800 5072.0000
54.3000 5022.0000
54.3200 4898.0000
54.3400 4953.0000
54.3600 4938.0000
54.3800 4891.0000
54.4000 4742.0000
54.4200 4844.0000
54.4400 4662.0000
54.4600 4796.0000
54.4800 4696.0000
54.5000 4568.0000
54.5200 4629.0000
54.5400 4604.0000
54.5600 4521.0000
54.5800 4389.0000
54.6000 4557.0000
54.6200 4621.0000
54.6400 4483.0000
54.6600 4704.0000
54.6800 4485.0000
54.7000 4540.0000
54.7200 4485.0000
54.7400 4423.0000
54.7600 4468.0000
54.7800 4388.0000
54.8000 4392.0000
54.8200 4526.0000
54.8400 4374.0000
54.8600 4405.0000
54.8800 4400.0000
54.9000 4455.0000
54.9200 4492.0000
54.9400 4383.0000
54.9600 4360.0000
54.9800 4297.0000
55.0000 4317.0000
55.0200 4228.0000
55.0400 4312.0000
55.0600 4322.0000
55.0800 4290.0000
55.1000 4342.0000
55.1200 4289.0000
55.1400 4269.0000
55.1600 4266.0000
55.1800 4321.0000
55.2000 4327.0000
55.2200 4207.0000
55.2400 4228.0000
55.2600 4189.0000
55.2800 4096.0000
55.3000 4178.0000
55.3200 4270.0000
55.3400 4208.0000
55.3600 4192.0000
55.3800 4141.0000
55.4000 4102.0000
55.4200 4221.0000
55.4400 4111.0000
55.4600 4119.0000
55.4800 4206.0000
55.5000 4164.0000
55.5200 4255.0000
55.5400 4086.0000
55.5600 4267.0000
55.5800 4243.0000
55.6000 4226.0000
55.6200 4178.0000
55.6400 4255.0000
55.6600 4005.0000
55.6800 4177.0000
55.7000 4147.0000
55.7200 4165.0000
55.7400 4116.0000
55.7600 4208.0000
55.7800 4256.0000
55.8000 4156.0000
55.8200 4189.0000
55.8400 4168.0000
55.8600 4220.0000
55.8800 4065.0000
55.9000 4227.0000
55.9200 4123.0000
55.9400 4233.0000
55.9600 4082.0000
55.9800 4170.0000
56.0000 4196.0000
56.0200 4256.0000
56.0400 4145.0000
56.0600 4182.0000
56.0800 4185.0000
56.1000 4094.0000
56.1200 4123.0000
56.1400 4195.0000
56.1600 4123.0000
56.1800 4111.0000
56.2000 4221.0000
56.2200 4321.0000
56.2400 4227.0000
56.2600 4096.0000
56.2800 4194.0000
56.3000 4194.0000
56.3200 4169.0000
56.3400 4160.0000
56.3600 4338.0000
56.3800 4228.0000
56.4000 4195.0000
56.4200 4243.0000
56.4400 4118.0000
56.4600 4085.0000
56.4800 4238.0000
56.5000 4093.0000
56.5200 4318.0000
56.5400 4108.0000
56.5600 4198.0000
56.5800 4120.0000
56.6000 4233.0000
56.6200 4155.0000
56.6400 4078.0000
56.6600 4262.0000
56.6800 4146.0000
56.7000 4138.0000
56.7200 4233.0000
56.7400 4108.0000
56.7600 4182.0000
56.7800 4227.0000
56.8000 4170.0000
56.8200 3964.0000
56.8400 4072.0000
56.8600 4152.0000
56.8800 4220.0000
56.9000 4129.0000
56.9200 4169.0000
56.9400 4254.0000
56.9600 4183.0000
56.9800 4223.0000
57.0000 4146.0000
57.0200 4183.0000
57.0400 4227.0000
57.0600 4179.0000
57.0800 4171.0000
57.1000 4153.0000
57.1200 4169.0000
57.1400 4259.0000
57.1600 4199.0000
57.1800 4268.0000
57.2000 4196.0000
57.2200 4203.0000
57.2400 4118.0000
57.2600 4221.0000
57.2800 4159.0000
57.3000 4081.0000
57.3200 4208.0000
57.3400 4122.0000
57.3600 4155.0000
57.3800 4209.0000
57.4000 4106.0000
57.4200 4195.0000
57.4400 4190.0000
57.4600 4249.0000
57.4800 4242.0000
57.5000 4224.0000
57.5200 4274.0000
57.5400 4271.0000
57.5600 4204.0000
57.5800 4172.0000
57.6000 4269.0000
57.6200 4134.0000
57.6400 4309.0000
57.6600 4281.0000
57.6800 4264.0000
57.7000 4313.0000
57.7200 4426.0000
57.7400 4429.0000
57.7600 4337.0000
57.7800 4416.0000
57.8000 4434.0000
57.8200 4400.0000
57.8400 4275.0000
57.8600 4436.0000
57.8800 4391.0000
57.9000 4508.0000
57.9200 4602.0000
57.9400 4757.0000
57.9600 4837.0000
57.9800 4904.0000
58.0000 4977.0000
58.0200 5057.0000
58.0400 5172.0000
58.0600 5428.0000
58.0800 5548.0000
58.1000 5646.0000
58.1200 5878.0000
58.1400 6050.0000
58.1600 6248.0000
58.1800 6395.0000
58.2000 6314.0000
58.2200 6718.0000
58.2400 6727.0000
58.2600 6759.0000
58.2800 6704.0000
58.3000 6528.0000
58.3200 6451.0000
58.3400 6373.0000
58.3600 6243.0000
58.3800 6083.0000
58.4000 6070.0000
58.4200 5978.0000
58.4400 5647.0000
58.4600 5509.0000
58.4800 5345.0000
58.5000 5272.0000
58.5200 5150.0000
58.5400 5040.0000
58.5600 5011.0000
58.5800 4856.0000
58.6000 4666.0000
58.6200 4722.0000
58.6400 4523.0000
58.6600 4571.0000
58.6800 4465.0000
58.7000 4586.0000
58.7200 4353.0000
58.7400 4336.0000
58.7600 4290.0000
58.7800 4200.0000
58.8000 4242.0000
58.8200 4273.0000
58.8400 4284.0000
58.8600 4167.0000
58.8800 4229.0000
58.9000 4305.0000
58.9200 4210.0000
58.9400 4180.0000
58.9600 4158.0000
58.9800 4131.0000
59.0000 4238.0000
59.0200 4116.0000
59.0400 4137.0000
59.0600 4045.0000
59.0800 4235.0000
59.1000 4033.0000
59.1200 4129.0000
59.1400 4057.0000
59.1600 3953.0000
59.1800 4100.0000
59.2000 4008.0000
59.2200 4016.0000
59.2400 3934.0000
59.2600 4030.0000
59.2800 3996.0000
59.3000 3968.0000
59.3200 4010.0000
59.3400 3970.0000
59.3600 4028.0000
59.3800 4009.0000
59.4000 4034.0000
59.4200 3999.0000
59.4400 3897.0000
59.4600 4035.0000
59.4800 3970.0000
59.5000 3881.0000
59.5200 3924.0000
59.5400 4077.0000
59.5600 3989.0000
59.5800 4063.0000
59.6000 3930.0000
59.6200 3962.0000
59.6400 3984.0000
59.6600 4119.0000
59.6800 4013.0000
59.7000 3966.0000
59.7200 3911.0000
59.7400 4049.0000
59.7600 3899.0000
59.7800 4028.0000
59.8000 3916.0000
59.8200 3957.0000
59.8400 3987.0000
59.8600 3833.0000
59.8800 3981.0000
59.9000 3989.0000
59.9200 3935.0000
59.9400 3967.0000
59.9600 3955.0000
59.9800 4024.0000
60.0000 3972.0000
60.0200 3997.0000
60.0400 3917.0000
60.0600 3880.0000
60.0800 4010.0000
60.1000 3963.0000
60.1200 3923.0000
60.1400 3923.0000
60.1600 4033.0000
60.1800 4005.0000
60.2000 3948.0000
60.2200 3985.0000
60.2400 3984.0000
60.2600 3960.0000
60.2800 3936.0000
60.3000 3928.0000
60.3200 3981.0000
60.3400 3967.0000
60.3600 3831.0000
60.3800 3994.0000
60.4000 3923.0000
60.4200 3961.0000
60.4400 4051.0000
60.4600 3891.0000
60.4800 3951.0000
60.5000 4021.0000
60.5200 4010.0000
60.5400 4050.0000
60.5600 3959.0000
60.5800 3979.0000
60.6000 3970.0000
60.6200 4031.0000
60.6400 4024.0000
60.6600 4056.0000
60.6800 4049.0000
60.7000 4024.0000
60.7200 4117.0000
60.7400 4123.0000
60.7600 4094.0000
60.7800 4135.0000
60.8000 4173.0000
60.8200 4033.0000
60.8400 4007.0000
60.8600 4010.0000
60.8800 4177.0000
60.9000 4111.0000
60.9200 4041.0000
60.9400 4104.0000
60.9600 4273.0000
60.9800 4050.0000
61.0000 4153.0000
61.0200 4126.0000
61.0400 4064.0000
61.0600 4086.0000
61.0800 4002.0000
61.1000 3980.0000
61.1200 4107.0000
61.1400 3981.0000
61.1600 4105.0000
61.1800 4040.0000
61.2000 4007.0000
61.2200 4045.0000
61.2400 4167.0000
61.2600 4106.0000
61.2800 4062.0000
61.3000 4005.0000
61.3200 4148.0000
61.3400 4075.0000
61.3600 4024.0000
61.3800 3994.0000
61.4000 4063.0000
61.4200 4068.0000
61.4400 4051.0000
61.4600 4048.0000
61.4800 4039.0000
61.5000 3940.0000
61.5200 4194.0000
61.5400 4136.0000
61.5600 4047.0000
61.5800 4127.0000
61.6000 4165.0000
61.6200 4019.0000
61.6400 4016.0000
61.6600 4142.0000
61.6800 4112.0000
61.7000 4190.0000
61.7200 4213.0000
61.7400 4263.0000
61.7600 4111.0000
61.7800 4263.0000
61.8000 4195.0000
61.8200 4312.0000
61.8400 4257.0000
61.8600 4356.0000
61.8800 4361.0000
61.9000 4424.0000
61.9200 4356.0000
61.9400 4341.0000
61.9600 4469.0000
61.9800 4502.0000
62.0000 4460.0000
62.0200 4349.0000
62.0400 4404.0000
62.0600 4427.0000
62.0800 4266.0000
62.1000 4331.0000
62.1200 4403.0000
62.1400 4388.0000
62.1600 4237.0000
62.1800 4338.0000
62.2000 4282.0000
62.2200 4376.0000
62.2400 4505.0000
62.2600 4320.0000
62.2800 4258.0000
62.3000 4297.0000
62.3200 4381.0000
62.3400 4438.0000
62.3600 4486.0000
62.3800 4480.0000
62.4000 4541.0000
62.4200 4508.0000
62.4400 4586.0000
62.4600 4452.0000
62.4800 4616.0000
62.5000 4601.0000
62.5200 4820.0000
62.5400 4843.0000
62.5600 4874.0000
62.5800 4912.0000
62.6000 5083.0000
62.6200 5152.0000
62.6400 5143.0000
62.6600 5388.0000
62.6800 5584.0000
62.7000 5587.0000
62.7200 5814.0000
62.7400 5935.0000
62.7600 6202.0000
62.7800 6470.0000
62.8000 6835.0000
62.8200 7163.0000
62.8400 7743.0000
62.8600 8268.0000
62.8800 8942.0000
62.9000 9521.0000
62.9200 10421.0000
62.9400 10996.0000
62.9600 12028.0000
62.9800 12823.0000
63.0000 13402.0000
63.0200 13656.0000
63.0400 13552.0000
63.0600 13595.0000
63.0800 12971.0000
63.1000 12998.0000
63.1200 13073.0000
63.1400 12745.0000
63.1600 12729.0000
63.1800 12606.0000
63.2000 12097.0000
63.2200 11720.0000
63.2400 11014.0000
63.2600 10587.0000
63.2800 10065.0000
63.3000 9596.0000
63.3200 9068.0000
63.3400 8478.0000
63.3600 8504.0000
63.3800 8058.0000
63.4000 7726.0000
63.4200 7332.0000
63.4400 7178.0000
63.4600 6726.0000
63.4800 6602.0000
63.5000 6440.0000
63.5200 6161.0000
63.5400 5962.0000
63.5600 5870.0000
63.5800 5664.0000
63.6000 5503.0000
63.6200 5454.0000
63.6400 5230.0000
63.6600 5227.0000
63.6800 5159.0000
63.7000 5013.0000
63.7200 4960.0000
63.7400 4803.0000
63.7600 4865.0000
63.7800 4835.0000
63.8000 4710.0000
63.8200 4545.0000
63.8400 4743.0000
63.8600 4627.0000
63.8800 4506.0000
63.9000 4446.0000
63.9200 4375.0000
63.9400 4338.0000
63.9600 4251.0000
63.9800 4404.0000
64.0000 4433.0000
64.0200 4225.0000
64.0400 4162.0000
64.0600 4177.0000
64.0800 4271.0000
64.1000 4175.0000
64.1200 3999.0000
64.1400 4165.0000
64.1600 4078.0000
64.1800 4065.0000
64.2000 4058.0000
64.2200 4041.0000
64.2400 3980.0000
64.2600 4059.0000
64.2800 3985.0000
64.3000 4039.0000
64.3200 4018.0000
64.3400 4141.0000
64.3600 4022.0000
64.3800 4066.0000
64.4000 4105.0000
64.4200 4020.0000
64.4400 4062.0000
64.4600 4038.0000
64.4800 4003.0000
64.5000 3981.0000
64.5200 3888.0000
64.5400 3865.0000
64.5600 3892.0000
64.5800 3822.0000
64.6000 3967.0000
64.6200 3921.0000
64.6400 4022.0000
64.6600 3980.0000
64.6800 3924.0000
64.7000 3911.0000
64.7200 3979.0000
64.7400 3978.0000
64.7600 3992.0000
64.7800 4099.0000
64.8000 3963.0000
64.8200 4001.0000
64.8400 3908.0000
64.8600 3969.0000
64.8800 4018.0000
64.9000 3959.0000
64.9200 3954.0000
64.9400 4026.0000
64.9600 3948.0000
64.9800 3878.0000
65.0000 3953.0000
65.0200 4087.0000
65.0400 4008.0000
65.0600 4080.0000
65.0800 3937.0000
65.1000 4051.0000
65.1200 3969.0000
65.1400 3989.0000
65.1600 4033.0000
65.1800 3978.0000
65.2000 4054.0000
65.2200 4033.0000
65.2400 3994.0000
65.2600 3914.0000
65.2800 3929.0000
65.3000 3977.0000
65.3200 3839.0000
65.3400 3976.0000
65.3600 3808.0000
65.3800 3885.0000
65.4000 3730.0000
65.4200 3923.0000
65.4400 3837.0000
65.4600 3922.0000
65.4800 3858.0000
65.5000 3753.0000
65.5200 3837.0000
65.5400 3918.0000
65.5600 3841.0000
65.5800 3797.0000
65.6000 3816.0000
65.6200 3870.0000
65.6400 3793.0000
65.6600 3744.0000
65.6800 3718.0000
65.7000 3718.0000
65.7200 3836.0000
65.7400 3771.0000
65.7600 3885.0000
65.7800 3804.0000
65.8000 3840.0000
65.8200 3842.0000
65.8400 3746.0000
65.8600 3817.0000
65.8800 3788.0000
65.9000 3716.0000
65.9200 3653.0000
65.9400 3789.0000
65.9600 3853.0000
65.9800 3770.0000
66.0000 3745.0000
66.0200 3756.0000
66.0400 3807.0000
66.0600 3811.0000
66.0800 3680.0000
66.1000 3764.0000
66.1200 3895.0000
66.1400 3731.0000
66.1600 3863.0000
66.1800 3761.0000
66.2000 3781.0000
66.2200 3726.0000
66.2400 3748.0000
66.2600 3717.0000
66.2800 3747.0000
66.3000 3659.0000
66.3200 3663.0000
66.3400 3758.0000
66.3600 3758.0000
66.3800 3736.0000
66.4000 3802.0000
66.4200 3804.0000
66.4400 3807.0000
66.4600 3671.0000
66.4800 3697.0000
66.5000 3874.0000
66.5200 3790.0000
66.5400 3658.0000
66.5600 3723.0000
66.5800 3829.0000
66.6000 3872.0000
66.6200 3773.0000
66.6400 3694.0000
66.6600 3663.0000
66.6800 3798.0000
66.7000 3794.0000
66.7200 3822.0000
66.7400 3873.0000
66.7600 3743.0000
66.7800 3764.0000
66.8000 3731.0000
66.8200 3754.0000
66.8400 3754.0000
66.8600 3854.0000
66.8800 3814.0000
66.9000 3786.0000
66.9200 3758.0000
66.9400 3669.0000
66.9600 3700.0000
66.9800 3744.0000
67.0000 3799.0000
67.0200 3689.0000
67.0400 3713.0000
67.0600 3773.0000
67.0800 3737.0000
67.1000 3738.0000
67.1200 3798.0000
67.1400 3736.0000
67.1600 3789.0000
67.1800 3816.0000
67.2000 3789.0000
67.2200 3713.0000
67.2400 3743.0000
67.2600 3773.0000
67.2800 3791.0000
67.3000 3658.0000
67.3200 3766.0000
67.3400 3632.0000
67.3600 3732.0000
67.3800 3836.0000
67.4000 3776.0000
67.4200 3860.0000
67.4400 3761.0000
67.4600 3777.0000
67.4800 3753.0000
67.5000 3600.0000
67.5200 3723.0000
67.5400 3745.0000
67.5600 3780.0000
67.5800 3875.0000
67.6000 3753.0000
67.6200 3760.0000
67.6400 3751.0000
67.6600 3593.0000
67.6800 3626.0000
67.7000 3707.0000
67.7200 3738.0000
67.7400 3649.0000
67.7600 3688.0000
67.7800 3733.0000
67.8000 3647.0000
67.8200 3802.0000
67.8400 3731.0000
67.8600 3833.0000
67.8800 3660.0000
67.9000 3684.0000
67.9200 3788.0000
67.9400 3788.0000
67.9600 3669.0000
67.9800 3680.0000
68.0000 3737.0000
68.0200 3703.0000
68.0400 3794.0000
68.0600 3783.0000
68.0800 3750.0000
68.1000 3692.0000
68.1200 3632.0000
68.1400 3723.0000
68.1600 3811.0000
68.1800 3824.0000
68.2000 3715.0000
68.2200 3744.0000
68.2400 3720.0000
68.2600 3653.0000
68.2800 3739.0000
68.3000 3776.0000
68.3200 3788.0000
68.3400 3726.0000
68.3600 3699.0000
68.3800 3789.0000
68.4000 3831.0000
68.4200 3742.0000
68.4400 3793.0000
68.4600 3803.0000
68.4800 3768.0000
68.5000 3779.0000
68.5200 3750.0000
68.5400 3754.0000
68.5600 3877.0000
68.5800 3805.0000
68.6000 3802.0000
68.6200 3818.0000
68.6400 3791.0000
68.6600 3964.0000
68.6800 3730.0000
68.7000 3826.0000
68.7200 3900.0000
68.7400 3908.0000
68.7600 3815.0000
68.7800 3957.0000
68.8000 4020.0000
68.8200 3857.0000
68.8400 4111.0000
68.8600 3943.0000
68.8800 3998.0000
68.9000 4046.0000
68.9200 3971.0000
68.9400 4100.0000
68.9600 4162.0000
68.9800 4130.0000
69.0000 4306.0000
69.0200 4282.0000
69.0400 4310.0000
69.0600 4281.0000
69.0800 4312.0000
69.1000 4445.0000
69.1200 4485.0000
69.1400 4603.0000
69.1600 4638.0000
69.1800 4666.0000
69.2000 4709.0000
69.2200 5016.0000
69.2400 5032.0000
69.2600 5127.0000
69.2800 5287.0000
69.3000 5385.0000
69.3200 5482.0000
69.3400 5566.0000
69.3600 5851.0000
69.3800 5896.0000
69.4000 6152.0000
69.4200 6064.0000
69.4400 6239.0000
69.4600 6413.0000
69.4800 6374.0000
69.5000 6383.0000
69.5200 6365.0000
69.5400 6390.0000
69.5600 6363.0000
69.5800 6216.0000
69.6000 6245.0000
69.6200 6080.0000
69.6400 6055.0000
69.6600 6012.0000
69.6800 5908.0000
69.7000 5741.0000
69.7200 5668.0000
69.7400 5464.0000
69.7600 5351.0000
69.7800 5242.0000
69.8000 5088.0000
69.8200 5051.0000
69.8400 5110.0000
69.8600 4966.0000
69.8800 4864.0000
69.9000 4794.0000
69.9200 4796.0000
69.9400 4667.0000
69.9600 4526.0000
69.9800 4670.0000
70.0000 4518.0000
70.0200 4576.0000
70.0400 4520.0000
70.0600 4406.0000
70.0800 4317.0000
70.1000 4429.0000
70.1200 4460.0000
70.1400 4202.0000
70.1600 4219.0000
70.1800 4227.0000
70.2000 4215.0000
70.2200 4274.0000
70.2400 4121.0000
70.2600 3932.0000
70.2800 4024.0000
70.3000 4117.0000
70.3200 4079.0000
70.3400 3961.0000
70.3600 4034.0000
70.3800 3934.0000
70.4000 4099.0000
70.4200 3952.0000
70.4400 4056.0000
70.4600 3990.0000
70.4800 4051.0000
70.5000 4010.0000
70.5200 4009.0000
70.5400 4040.0000
70.5600 4076.0000
70.5800 3981.0000
70.6000 4002.0000
70.6200 4100.0000
70.6400 4097.0000
70.6600 4005.0000
70.6800 3980.0000
70.7000 4029.0000
70.7200 4113.0000
70.7400 4146.0000
70.7600 4094.0000
70.7800 3993.0000
70.8000 3978.0000
70.8200 4176.0000
70.8400 4134.0000
70.8600 4177.0000
70.8800 4212.0000
70.9000 4118.0000
70.9200 4167.0000
70.9400 4058.0000
70.9600 4136.0000
70.9800 4182.0000
71.0000 4300.0000
71.0200 4336.0000
71.0400 4200.0000
71.0600 4267.0000
71.0800 4365.0000
71.1000 4384.0000
71.1200 4526.0000
71.1400 4536.0000
71.1600 4505.0000
71.1800 4644.0000
71.2000 4645.0000
71.2200 4845.0000
71.2400 5005.0000
71.2600 5253.0000
71.2800 5236.0000
71.3000 5425.0000
71.3200 5548.0000
71.3400 5827.0000
71.3600 6141.0000
71.3800 6167.0000
71.4000 6726.0000
71.4200 6959.0000
71.4400 7348.0000
71.4600 7906.0000
71.4800 8337.0000
71.5000 8795.0000
71.5200 9114.0000
71.5400 9211.0000
71.5600 9289.0000
71.5800 9043.0000
71.6000 8670.0000
71.6200 8684.0000
71.6400 8653.0000
71.6600 8389.0000
71.6800 8633.0000
71.7000 8468.0000
71.7200 8464.0000
71.7400 8266.0000
71.7600 7835.0000
71.7800 7657.0000
71.8000 7439.0000
71.8200 7059.0000
71.8400 7003.0000
71.8600 6684.0000
71.8800 6611.0000
71.9000 6199.0000
71.9200 5909.0000
71.9400 5841.0000
71.9600 5725.0000
71.9800 5625.0000
72.0000 5490.0000
72.0200 5448.0000
72.0400 5367.0000
72.0600 5191.0000
72.0800 5113.0000
72.1000 4981.0000
72.1200 5001.0000
72.1400 4823.0000
72.1600 4843.0000
72.1800 4802.0000
72.2000 4676.0000
72.2200 4553.0000
72.2400 4564.0000
72.2600 4580.0000
72.2800 4541.0000
72.3000 4462.0000
72.3200 4434.0000
72.3400 4456.0000
72.3600 4504.0000
72.3800 4477.0000
72.4000 4412.0000
72.4200 4317.0000
72.4400 4317.0000
72.4600 4376.0000
72.4800 4433.0000
72.5000 4334.0000
72.5200 4234.0000
72.5400 4238.0000
72.5600 4251.0000
72.5800 4209.0000
72.6000 4175.0000
72.6200 4104.0000
72.6400 4176.0000
72.6600 4033.0000
72.6800 3987.0000
72.7000 4046.0000
72.7200 4021.0000
72.7400 4170.0000
72.7600 4084.0000
72.7800 3922.0000
72.8000 4039.0000
72.8200 3873.0000
72.8400 3943.0000
72.8600 4005.0000
72.8800 3927.0000
72.9000 3910.0000
72.9200 3925.0000
72.9400 3845.0000
72.9600 3836.0000
72.9800 3823.0000
73.0000 3770.0000
73.0200 3785.0000
73.0400 3885.0000
73.0600 3806.0000
73.0800 3839.0000
73.1000 3839.0000
73.1200 3704.0000
73.1400 3754.0000
73.1600 3783.0000
73.1800 3686.0000
73.2000 3816.0000
73.2200 3689.0000
73.2400 3791.0000
73.2600 3739.0000
73.2800 3758.0000
73.3000 3727.0000
73.3200 3793.0000
73.3400 3756.0000
73.3600 3710.0000
73.3800 3780.0000
73.4000 3742.0000
73.4200 3641.0000
73.4400 3631.0000
73.4600 3695.0000
73.4800 3713.0000
73.5000 3609.0000
73.5200 3679.0000
73.5400 3698.0000
73.5600 3661.0000
73.5800 3701.0000
73.6000 3692.0000
73.6200 3663.0000
73.6400 3579.0000
73.6600 3628.0000
73.6800 3712.0000
73.7000 3652.0000
73.7200 3655.0000
73.7400 3752.0000
73.7600 3682.0000
73.7800 3638.0000
73.8000 3611.0000
73.8200 3566.0000
73.8400 3632.0000
73.8600 3645.0000
73.8800 3592.0000
73.9000 3675.0000
73.9200 3673.0000
73.9400 3777.0000
73.9600 3643.0000
73.9800 3677.0000
74.0000 3621.0000
74.0200 3605.0000
74.0400 3760.0000
74.0600 3650.0000
74.0800 3619.0000
74.1000 3640.0000
74.1200 3699.0000
74.1400 3584.0000
74.1600 3798.0000
74.1800 3756.0000
74.2000 3711.0000
74.2200 3595.0000
74.2400 3663.0000
74.2600 3518.0000
74.2800 3612.0000
74.3000 3599.0000
74.3200 3582.0000
74.3400 3661.0000
74.3600 3639.0000
74.3800 3642.0000
74.4000 3654.0000
74.4200 3631.0000
74.4400 3656.0000
74.4600 3619.0000
74.4800 3674.0000
74.5000 3731.0000
74.5200 3650.0000
74.5400 3725.0000
74.5600 3630.0000
74.5800 3633.0000
74.6000 3498.0000
74.6200 3660.0000
74.6400 3500.0000
74.6600 3545.0000
74.6800 3638.0000
74.7000 3609.0000
74.7200 3555.0000
74.7400 3598.0000
74.7600 3482.0000
74.7800 3608.0000
74.8000 3624.0000
74.8200 3607.0000
74.8400 3557.0000
74.8600 3660.0000
74.8800 3648.0000
74.9000 3570.0000
74.9200 3544.0000
74.9400 3596.0000
74.9600 3562.0000
74.9800 3572.0000
75.0000 3669.0000
75.0200 3622.0000
75.0400 3638.0000
75.0600 3602.0000
75.0800 3578.0000
75.1000 3606.0000
75.1200 3561.0000
75.1400 3659.0000
75.1600 3553.0000
75.1800 3672.0000
75.2000 3631.0000
75.2200 3615.0000
75.2400 3587.0000
75.2600 3675.0000
75.2800 3636.0000
75.3000 3562.0000
75.3200 3583.0000
75.3400 3622.0000
75.3600 3738.0000
75.3800 3660.0000
75.4000 3469.0000
75.4200 3602.0000
75.4400 3638.0000
75.4600 3477.0000
75.4800 3657.0000
75.5000 3630.0000
75.5200 3540.0000
75.5400 3646.0000
75.5600 3717.0000
75.5800 3674.0000
75.6000 3649.0000
75.6200 3596.0000
75.6400 3617.0000
75.6600 3612.0000
75.6800 3605.0000
75.7000 3648.0000
75.7200 3605.0000
75.7400 3562.0000
75.7600 3601.0000
75.7800 3594.0000
75.8000 3708.0000
75.8200 3684.0000
75.8400 3784.0000
75.8600 3684.0000
75.8800 3695.0000
75.9000 3769.0000
75.9200 3739.0000
75.9400 3714.0000
75.9600 3706.0000
75.9800 3713.0000
76.0000 3693.0000
76.0200 3736.0000
76.0400 3782.0000
76.0600 3765.0000
76.0800 3729.0000
76.1000 3705.0000
76.1200 3568.0000
76.1400 3791.0000
76.1600 3656.0000
76.1800 3825.0000
76.2000 3751.0000
76.2200 3694.0000
76.2400 3799.0000
76.2600 3742.0000
76.2800 3837.0000
76.3000 3769.0000
76.3200 3855.0000
76.3400 3859.0000
76.3600 3920.0000
76.3800 3793.0000
76.4000 3736.0000
76.4200 3893.0000
76.4400 3844.0000
76.4600 3897.0000
76.4800 3800.0000
76.5000 3887.0000
76.5200 3925.0000
76.5400 3925.0000
76.5600 3828.0000
76.5800 3970.0000
76.6000 3943.0000
76.6200 4008.0000
76.6400 3932.0000
76.6600 3946.0000
76.6800 3950.0000
76.7000 3991.0000
76.7200 3980.0000
76.7400 3926.0000
76.7600 3946.0000
76.7800 3989.0000
76.8000 4017.0000
76.8200 3997.0000
76.8400 4032.0000
76.8600 4060.0000
76.8800 4082.0000
76.9000 4094.0000
76.9200 4018.0000
76.9400 4038.0000
76.9600 4097.0000
76.9800 4134.0000
77.0000 3980.0000
77.0200 4133.0000
77.0400 4023.0000
77.0600 4047.0000
77.0800 4046.0000
77.1000 4102.0000
77.1200 4071.0000
77.1400 4108.0000
77.1600 3949.0000
77.1800 4088.0000
77.2000 3973.0000
77.2200 4078.0000
77.2400 4061.0000
77.2600 4058.0000
77.2800 4096.0000
77.3000 4169.0000
77.3200 4086.0000
77.3400 4067.0000
77.3600 4041.0000
77.3800 4108.0000
77.4000 4178.0000
77.4200 4017.0000
77.4400 4063.0000
77.4600 4129.0000
77.4800 4095.0000
77.5000 4138.0000
77.5200 4164.0000
77.5400 4140.0000
77.5600 4021.0000
77.5800 4232.0000
77.6000 4215.0000
77.6200 4231.0000
77.6400 4253.0000
77.6600 4247.0000
77.6800 4177.0000
77.7000 4322.0000
77.7200 4463.0000
77.7400 4238.0000
77.7600 4425.0000
77.7800 4412.0000
77.8000 4476.0000
77.8200 4505.0000
77.8400 4556.0000
77.8600 4570.0000
77.8800 4664.0000
77.9000 4848.0000
77.9200 4916.0000
77.9400 4747.0000
77.9600 4965.0000
77.9800 5007.0000
78.0000 5034.0000
78.0200 5148.0000
78.0400 5422.0000
78.0600 5454.0000
78.0800 5711.0000
78.1000 5837.0000
78.1200 5933.0000
78.1400 6102.0000
78.1600 6313.0000
78.1800 6407.0000
78.2000 6535.0000
78.2200 6726.0000
78.2400 6736.0000
78.2600 6925.0000
78.2800 7060.0000
78.3000 6944.0000
78.3200 6978.0000
78.3400 6838.0000
78.3600 6815.0000
78.3800 6710.0000
78.4000 6781.0000
78.4200 6866.0000
78.4400 6798.0000
78.4600 6579.0000
78.4800 6493.0000
78.5000 6602.0000
78.5200 6373.0000
78.5400 6376.0000
78.5600 6325.0000
78.5800 6104.0000
78.6000 6047.0000
78.6200 6027.0000
78.6400 5792.0000
78.6600 5895.0000
78.6800 5611.0000
78.7000 5481.0000
78.7200 5382.0000
78.7400 5446.0000
78.7600 5318.0000
78.7800 5315.0000
78.8000 5330.0000
78.8200 5229.0000
78.8400 5198.0000
78.8600 5285.0000
78.8800 5302.0000
78.9000 5120.0000
78.9200 5197.0000
78.9400 5101.0000
78.9600 5189.0000
78.9800 5333.0000
79.0000 5314.0000
79.0200 5230.0000
79.0400 5329.0000
79.0600 5462.0000
79.0800 5462.0000
79.1000 5468.0000
79.1200 5591.0000
79.1400 5852.0000
79.1600 5982.0000
79.1800 5975.0000
79.2000 6131.0000
79.2200 6146.0000
79.2400 6447.0000
79.2600 6559.0000
79.2800 6814.0000
79.3000 6878.0000
79.3200 7085.0000
79.3400 7572.0000
79.3600 7786.0000
79.3800 8057.0000
79.4000 8459.0000
79.4200 9015.0000
79.4400 9378.0000
79.4600 9968.0000
79.4800 10705.0000
79.5000 11376.0000
79.5200 12407.0000
79.5400 13195.0000
79.5600 14435.0000
79.5800 15614.0000
79.6000 16352.0000
79.6200 17395.0000
79.6400 18281.0000
79.6600 18305.0000
79.6800 18026.0000
79.7000 18278.0000
79.7200 17412.0000
79.7400 17424.0000
79.7600 16884.0000
79.7800 16661.0000
79.8000 16511.0000
79.8200 16405.0000
79.8400 16201.0000
79.8600 16494.0000
79.8800 16161.0000
79.9000 15877.0000
79.9200 15297.0000
79.9400 14684.0000
79.9600 13813.0000
79.9800 13373.0000
80.0000 12467.0000
80.0200 12045.0000
80.0400 11441.0000
80.0600 10976.0000
80.0800 10631.0000
80.1000 10131.0000
80.1200 9742.0000
80.1400 9276.0000
80.1600 8975.0000
80.1800 8718.0000
80.2000 8370.0000
80.2200 8348.0000
80.2400 7881.0000
80.2600 7563.0000
80.2800 7505.0000
80.3000 7105.0000
80.3200 6967.0000
80.3400 6942.0000
80.3600 6778.0000
80.3800 6534.0000
80.4000 6525.0000
80.4200 6293.0000
80.4400 6031.0000
80.4600 6001.0000
80.4800 6038.0000
80.5000 5903.0000
80.5200 5698.0000
80.5400 5606.0000
80.5600 5704.0000
80.5800 5457.0000
80.6000 5332.0000
80.6200 5288.0000
80.6400 5191.0000
80.6600 5257.0000
80.6800 5147.0000
80.7000 4962.0000
80.7200 5065.0000
80.7400 5010.0000
80.7600 4827.0000
80.7800 4851.0000
80.8000 4854.0000
80.8200 4827.0000
80.8400 4739.0000
80.8600 4768.0000
80.8800 4566.0000
80.9000 4536.0000
80.9200 4526.0000
80.9400 4467.0000
80.9600 4613.0000
80.9800 4456.0000
81.0000 4514.0000
81.0200 4276.0000
81.0400 4427.0000
81.0600 4363.0000
81.0800 4275.0000
81.1000 4326.0000
81.1200 4303.0000
81.1400 4283.0000
81.1600 4329.0000
81.1800 4221.0000
81.2000 4285.0000
81.2200 4297.0000
81.2400 4142.0000
81.2600 4220.0000
81.2800 4088.0000
81.3000 4210.0000
81.3200 4104.0000
81.3400 4112.0000
81.3600 4194.0000
81.3800 4101.0000
81.4000 4117.0000
81.4200 4141.0000
81.4400 4148.0000
81.4600 4138.0000
81.4800 4192.0000
81.5000 4215.0000
81.5200 4199.0000
81.5400 4192.0000
81.5600 4336.0000
81.5800 4230.0000
81.6000 4305.0000
81.6200 4265.0000
81.6400 4262.0000
81.6600 4158.0000
81.6800 4330.0000
81.7000 4293.0000
81.7200 4307.0000
81.7400 4331.0000
81.7600 4365.0000
81.7800 4257.0000
81.8000 4252.0000
81.8200 4217.0000
81.8400 4268.0000
81.8600 4263.0000
81.8800 4216.0000
81.9000 4167.0000
81.9200 4241.0000
81.9400 4123.0000
81.9600 4345.0000
81.9800 4239.0000
82.0000 4252.0000
82.0200 4097.0000
82.0400 4145.0000
82.0600 4172.0000
82.0800 4162.0000
82.1000 4079.0000
82.1200 4156.0000
82.1400 4293.0000
82.1600 4239.0000
82.1800 4183.0000
82.2000 4072.0000
82.2200 4122.0000
82.2400 4181.0000
82.2600 4131.0000
82.2800 4159.0000
82.3000 4173.0000
82.3200 4104.0000
82.3400 4205.0000
82.3600 4071.0000
82.3800 4083.0000
82.4000 4150.0000
82.4200 4147.0000
82.4400 4206.0000
82.4600 4173.0000
82.4800 4315.0000
82.5000 4191.0000
82.5200 4044.0000
82.5400 4080.0000
82.5600 4075.0000
82.5800 4122.0000
82.6000 4002.0000
82.6200 4099.0000
82.6400 4091.0000
82.6600 3999.0000
82.6800 4064.0000
82.7000 3975.0000
82.7200 4051.0000
82.7400 4059.0000
82.7600 3997.0000
82.7800 3974.0000
82.8000 3996.0000
82.8200 4037.0000
82.8400 3932.0000
82.8600 3963.0000
82.8800 3842.0000
82.9000 3871.0000
82.9200 4025.0000
82.9400 3869.0000
82.9600 3858.0000
82.9800 3889.0000
83.0000 4001.0000
83.0200 3921.0000
83.0400 3993.0000
83.0600 3766.0000
83.0800 3863.0000
83.1000 3908.0000
83.1200 3748.0000
83.1400 3724.0000
83.1600 3816.0000
83.1800 3928.0000
83.2000 3766.0000
83.2200 3853.0000
83.2400 3740.0000
83.2600 3910.0000
83.2800 3847.0000
83.3000 3771.0000
83.3200 3876.0000
83.3400 3803.0000
83.3600 3851.0000
83.3800 3823.0000
83.4000 3816.0000
83.4200 3797.0000
83.4400 3772.0000
83.4600 3816.0000
83.4800 3875.0000
83.5000 3905.0000
83.5200 3886.0000
83.5400 3990.0000
83.5600 3786.0000
83.5800 3930.0000
83.6000 3941.0000
83.6200 3950.0000
83.6400 3855.0000
83.6600 3863.0000
83.6800 3919.0000
83.7000 3839.0000
83.7200 3910.0000
83.7400 4109.0000
83.7600 3871.0000
83.7800 3908.0000
83.8000 4033.0000
83.8200 3902.0000
83.8400 3941.0000
83.8600 3883.0000
83.8800 3948.0000
83.9000 3863.0000
83.9200 4088.0000
83.9400 3973.0000
83.9600 3969.0000
83.9800 3989.0000
84.0000 3973.0000
84.0200 3998.0000
84.0400 4020.0000
84.0600 4063.0000
84.0800 3878.0000
84.1000 4065.0000
84.1200 4016.0000
84.1400 4163.0000
84.1600 4099.0000
84.1800 4028.0000
84.2000 4232.0000
84.2200 4273.0000
84.2400 4241.0000
84.2600 4225.0000
84.2800 4319.0000
84.3000 4281.0000
84.3200 4511.0000
84.3400 4503.0000
84.3600 4496.0000
84.3800 4547.0000
84.4000 4645.0000
84.4200 4718.0000
84.4400 4785.0000
84.4600 4812.0000
84.4800 4993.0000
84.5000 4983.0000
84.5200 5055.0000
84.5400 5146.0000
84.5600 5304.0000
84.5800 5443.0000
84.6000 5400.0000
84.6200 5593.0000
84.6400 5627.0000
84.6600 5768.0000
84.6800 5731.0000
84.7000 5849.0000
84.7200 5939.0000
84.7400 5931.0000
84.7600 5946.0000
84.7800 6034.0000
84.8000 5848.0000
84.8200 5908.0000
84.8400 5986.0000
84.8600 5835.0000
84.8800 5673.0000
84.9000 5761.0000
84.9200 5640.0000
84.9400 5541.0000
84.9600 5445.0000
84.9800 5398.0000
85.0000 5224.0000
85.0200 5279.0000
85.0400 5244.0000
85.0600 5101.0000
85.0800 5106.0000
85.1000 5010.0000
85.1200 4892.0000
85.1400 5029.0000
85.1600 4825.0000
85.1800 4704.0000
85.2000 4585.0000
85.2200 4535.0000
85.2400 4491.0000
85.2600 4459.0000
85.2800 4370.0000
85.3000 4443.0000
85.3200 4337.0000
85.3400 4402.0000
85.3600 4273.0000
85.3800 4269.0000
85.4000 4290.0000
85.4200 3998.0000
85.4400 4260.0000
85.4600 4278.0000
85.4800 4238.0000
85.5000 4151.0000
85.5200 4173.0000
85.5400 4255.0000
85.5600 4211.0000
85.5800 4192.0000
85.6000 4152.0000
85.6200 4253.0000
85.6400 4205.0000
85.6600 4282.0000
85.6800 4349.0000
85.7000 4323.0000
85.7200 4353.0000
85.7400 4443.0000
85.7600 4501.0000
85.7800 4512.0000
85.8000 4545.0000
85.8200 4659.0000
85.8400 4593.0000
85.8600 4709.0000
85.8800 4844.0000
85.9000 4873.0000
85.9200 4966.0000
85.9400 4968.0000
85.9600 5105.0000
85.9800 5051.0000
86.0000 5155.0000
86.0200 5136.0000
86.0400 5268.0000
86.0600 5267.0000
86.0800 5116.0000
86.1000 5248.0000
86.1200 5121.0000
86.1400 5172.0000
86.1600 5266.0000
86.1800 5012.0000
86.2000 5223.0000
86.2200 5135.0000
86.2400 5090.0000
86.2600 5067.0000
86.2800 4893.0000
86.3000 4797.0000
86.3200 4935.0000
86.3400 4953.0000
86.3600 4788.0000
86.3800 4706.0000
86.4000 4545.0000
86.4200 4471.0000
86.4400 4419.0000
86.4600 4445.0000
86.4800 4361.0000
86.5000 4339.0000
86.5200 4184.0000
86.5400 4116.0000
86.5600 4139.0000
86.5800 4152.0000
86.6000 3982.0000
86.6200 3975.0000
86.6400 3965.0000
86.6600 3865.0000
86.6800 3975.0000
86.7000 3856.0000
86.7200 3773.0000
86.7400 3839.0000
86.7600 3821.0000
86.7800 3791.0000
86.8000 3794.0000
86.8200 3674.0000
86.8400 3691.0000
86.8600 3723.0000
86.8800 3584.0000
86.9000 3685.0000
86.9200 3668.0000
86.9400 3751.0000
86.9600 3563.0000
86.9800 3523.0000
87.0000 3583.0000
87.0200 3641.0000
87.0400 3598.0000
87.0600 3597.0000
87.0800 3567.0000
87.1000 3685.0000
87.1200 3422.0000
87.1400 3524.0000
87.1600 3494.0000
87.1800 3635.0000
87.2000 3469.0000
87.2200 3526.0000
87.2400 3489.0000
87.2600 3413.0000
87.2800 3545.0000
87.3000 3456.0000
87.3200 3501.0000
87.3400 3334.0000
87.3600 3415.0000
87.3800 3404.0000
87.4000 3453.0000
87.4200 3524.0000
87.4400 3530.0000
87.4600 3466.0000
87.4800 3393.0000
87.5000 3471.0000
87.5200 3493.0000
87.5400 3407.0000
87.5600 3374.0000
87.5800 3442.0000
87.6000 3501.0000
87.6200 3398.0000
87.6400 3448.0000
87.6600 3502.0000
87.6800 3385.0000
87.7000 3391.0000
87.7200 3420.0000
87.7400 3422.0000
87.7600 3455.0000
87.7800 3407.0000
87.8000 3394.0000
87.8200 3521.0000
87.8400 3466.0000
87.8600 3474.0000
87.8800 3346.0000
87.9000 3393.0000
87.9200 3358.0000
87.9400 3374.0000
87.9600 3336.0000
87.9800 3490.0000
88.0000 3422.0000
88.0200 3377.0000
88.0400 3422.0000
88.0600 3375.0000
88.0800 3319.0000
88.1000 3366.0000
88.1200 3478.0000
88.1400 3367.0000
88.1600 3421.0000
88.1800 3425.0000
88.2000 3411.0000
88.2200 3435.0000
88.2400 3487.0000
88.2600 3323.0000
88.2800 3510.0000
88.3000 3374.0000
88.3200 3386.0000
88.3400 3435.0000
88.3600 3356.0000
88.3800 3354.0000
88.4000 3416.0000
88.4200 3375.0000
88.4400 3410.0000
88.4600 3483.0000
88.4800 3373.0000
88.5000 3321.0000
88.5200 3439.0000
88.5400 3417.0000
88.5600 3445.0000
88.5800 3406.0000
88.6000 3392.0000
88.6200 3371.0000
88.6400 3359.0000
88.6600 3417.0000
88.6800 3377.0000
88.7000 3389.0000
88.7200 3400.0000
88.7400 3456.0000
88.7600 3354.0000
88.7800 3351.0000
88.8000 3456.0000
88.8200 3436.0000
88.8400 3361.0000
88.8600 3353.0000
88.8800 3394.0000
88.9000 3391.0000
88.9200 3522.0000
88.9400 3385.0000
88.9600 3327.0000
88.9800 3396.0000
89.0000 3363.0000
89.0200 3389.0000
89.0400 3382.0000
89.0600 3394.0000
89.0800 3413.0000
89.1000 3420.0000
89.1200 3308.0000
89.1400 3420.0000
89.1600 3344.0000
89.1800 3432.0000
89.2000 3479.0000
89.2200 3418.0000
89.2400 3397.0000
89.2600 3369.0000
89.2800 3535.0000
89.3000 3316.0000
89.3200 3442.0000
89.3400 3408.0000
89.3600 3452.0000
89.3800 3339.0000
89.4000 3464.0000
89.4200 3438.0000
89.4400 3387.0000
89.4600 3497.0000
89.4800 3507.0000
89.5000 3494.0000
89.5200 3407.0000
89.5400 3509.0000
89.5600 3523.0000
89.5800 3571.0000
89.6000 3530.0000
89.6200 3503.0000
89.6400 3490.0000
89.6600 3450.0000
89.6800 3564.0000
89.7000 3469.0000
89.7200 3554.0000
89.7400 3493.0000
89.7600 3603.0000
89.7800 3524.0000
89.8000 3397.0000
89.8200 3486.0000
89.8400 3517.0000
89.8600 3415.0000
89.8800 3449.0000
89.9000 3456.0000
89.9200 3557.0000
89.9400 3454.0000
89.9600 3501.0000
89.9800 3465.0000
90.0000 3525.0000
90.0200 3494.0000
90.0400 3496.0000
90.0600 3502.0000
90.0800 3524.0000
90.1000 3468.0000
90.1200 3463.0000
90.1400 3420.0000
90.1600 3470.0000
90.1800 3452.0000
90.2000 3478.0000
90.2200 3409.0000
90.2400 3454.0000
90.2600 3438.0000
90.2800 3482.0000
90.3000 3456.0000
90.3200 3531.0000
90.3400 3365.0000
90.3600 3510.0000
90.3800 3440.0000
90.4000 3452.0000
90.4200 3419.0000
90.4400 3404.0000
90.4600 3485.0000
90.4800 3617.0000
90.5000 3447.0000
90.5200 3422.0000
90.5400 3373.0000
90.5600 3498.0000
90.5800 3410.0000
90.6000 3515.0000
90.6200 3524.0000
90.6400 3401.0000
90.6600 3346.0000
90.6800 3356.0000
90.7000 3437.0000
90.7200 3336.0000
90.7400 3497.0000
90.7600 3488.0000
90.7800 3400.0000
90.8000 3515.0000
90.8200 3403.0000
90.8400 3505.0000
90.8600 3404.0000
90.8800 3531.0000
90.9000 3527.0000
90.9200 3405.0000
90.9400 3538.0000
90.9600 3453.0000
90.9800 3524.0000
91.0000 3515.0000
91.0200 3518.0000
91.0400 3532.0000
91.0600 3550.0000
91.0800 3429.0000
91.1000 3412.0000
91.1200 3386.0000
91.1400 3411.0000
91.1600 3475.0000
91.1800 3550.0000
91.2000 3473.0000
91.2200 3438.0000
91.2400 3489.0000
91.2600 3419.0000
91.2800 3490.0000
91.3000 3520.0000
91.3200 3540.0000
91.3400 3433.0000
91.3600 3482.0000
91.3800 3557.0000
91.4000 3537.0000
91.4200 3621.0000
91.4400 3545.0000
91.4600 3513.0000
91.4800 3494.0000
91.5000 3679.0000
91.5200 3470.0000
91.5400 3585.0000
91.5600 3683.0000
91.5800 3577.0000
91.6000 3555.0000
91.6200 3615.0000
91.6400 3589.0000
91.6600 3599.0000
91.6800 3582.0000
91.7000 3577.0000
91.7200 3702.0000
91.7400 3689.0000
91.7600 3730.0000
91.7800 3837.0000
91.8000 3819.0000
91.8200 3712.0000
91.8400 3793.0000
91.8600 3697.0000
91.8800 3699.0000
91.9000 3746.0000
91.9200 3796.0000
91.9400 3784.0000
91.9600 3786.0000
91.9800 3664.0000
92.0000 3666.0000
92.0200 3745.0000
92.0400 3690.0000
92.0600 3726.0000
92.0800 3665.0000
92.1000 3525.0000
92.1200 3591.0000
92.1400 3681.0000
92.1600 3694.0000
92.1800 3587.0000
92.2000 3712.0000
92.2200 3659.0000
92.2400 3646.0000
92.2600 3565.0000
92.2800 3544.0000
92.3000 3633.0000
92.3200 3519.0000
92.3400 3468.0000
92.3600 3472.0000
92.3800 3612.0000
92.4000 3510.0000
92.4200 3580.0000
92.4400 3562.0000
92.4600 3510.0000
92.4800 3496.0000
92.5000 3461.0000
92.5200 3378.0000
92.5400 3425.0000
92.5600 3464.0000
92.5800 3517.0000
92.6000 3453.0000
92.6200 3488.0000
92.6400 3469.0000
92.6600 3381.0000
92.6800 3401.0000
92.7000 3317.0000
92.7200 3477.0000
92.7400 3474.0000
92.7600 3451.0000
92.7800 3270.0000
92.8000 3444.0000
92.8200 3431.0000
92.8400 3428.0000
92.8600 3470.0000
92.8800 3411.0000
92.9000 3423.0000
92.9200 3302.0000
92.9400 3511.0000
92.9600 3463.0000
92.9800 3419.0000
93.0000 3446.0000
93.0200 3444.0000
93.0400 3400.0000
93.0600 3375.0000
93.0800 3482.0000
93.1000 3562.0000
93.1200 3392.0000
93.1400 3476.0000
93.1600 3479.0000
93.1800 3455.0000
93.2000 3450.0000
93.2200 3489.0000
93.2400 3400.0000
93.2600 3404.0000
93.2800 3474.0000
93.3000 3516.0000
93.3200 3453.0000
93.3400 3441.0000
93.3600 3513.0000
93.3800 3608.0000
93.4000 3476.0000
93.4200 3514.0000
93.4400 3549.0000
93.4600 3526.0000
93.4800 3611.0000
93.5000 3498.0000
93.5200 3534.0000
93.5400 3616.0000
93.5600 3563.0000
93.5800 3525.0000
93.6000 3503.0000
93.6200 3549.0000
93.6400 3536.0000
93.6600 3486.0000
93.6800 3595.0000
93.7000 3604.0000
93.7200 3511.0000
93.7400 3633.0000
93.7600 3529.0000
93.7800 3686.0000
93.8000 3661.0000
93.8200 3615.0000
93.8400 3604.0000
93.8600 3595.0000
93.8800 3613.0000
93.9000 3591.0000
93.9200 3515.0000
93.9400 3543.0000
93.9600 3665.0000
93.9800 3634.0000
94.0000 3614.0000
94.0200 3541.0000
94.0400 3613.0000
94.0600 3539.0000
94.0800 3560.0000
94.1000 3542.0000
94.1200 3620.0000
94.1400 3533.0000
94.1600 3489.0000
94.1800 3544.0000
94.2000 3552.0000
94.2200 3611.0000
94.2400 3538.0000
94.2600 3684.0000
94.2800 3620.0000
94.3000 3568.0000
94.3200 3610.0000
94.3400 3573.0000
94.3600 3589.0000
94.3800 3612.0000
94.4000 3586.0000
94.4200 3526.0000
94.4400 3623.0000
94.4600 3586.0000
94.4800 3628.0000
94.5000 3600.0000
94.5200 3518.0000
94.5400 3540.0000
94.5600 3574.0000
94.5800 3571.0000
94.6000 3643.0000
94.6200 3711.0000
94.6400 3779.0000
94.6600 3701.0000
94.6800 3704.0000
94.7000 3670.0000
94.7200 3872.0000
94.7400 3879.0000
94.7600 3802.0000
94.7800 3739.0000
94.8000 3861.0000
94.8200 3943.0000
94.8400 3925.0000
94.8600 3874.0000
94.8800 3929.0000
94.9000 3987.0000
94.9200 4053.0000
94.9400 4077.0000
94.9600 4148.0000
94.9800 4164.0000
95.0000 4311.0000
95.0200 4469.0000
95.0400 4485.0000
95.0600 4422.0000
95.0800 4494.0000
95.1000 4635.0000
95.1200 4701.0000
95.1400 4891.0000
95.1600 5010.0000
95.1800 5191.0000
95.2000 5275.0000
95.2200 5512.0000
95.2400 5612.0000
95.2600 5784.0000
95.2800 5957.0000
95.3000 6096.0000
95.3200 6283.0000
95.3400 6627.0000
95.3600 6884.0000
95.3800 7150.0000
95.4000 7377.0000
95.4200 7585.0000
95.4400 7649.0000
95.4600 7817.0000
95.4800 7914.0000
95.5000 7841.0000
95.5200 7514.0000
95.5400 7558.0000
95.5600 7285.0000
95.5800 7408.0000
95.6000 7252.0000
95.6200 7310.0000
95.6400 7046.0000
95.6600 7263.0000
95.6800 7126.0000
95.7000 7220.0000
95.7200 7227.0000
95.7400 7207.0000
95.7600 7151.0000
95.7800 7020.0000
95.8000 7004.0000
95.8200 6650.0000
95.8400 6542.0000
95.8600 6403.0000
95.8800 6316.0000
95.9000 5977.0000
95.9200 6167.0000
95.9400 5878.0000
95.9600 5732.0000
95.9800 5684.0000
96.0000 5514.0000
96.0200 5524.0000
96.0400 5263.0000
96.0600 5203.0000
96.0800 4972.0000
96.1000 5051.0000
96.1200 4979.0000
96.1400 4883.0000
96.1600 4798.0000
96.1800 4744.0000
96.2000 4616.0000
96.2200 4717.0000
96.2400 4531.0000
96.2600 4503.0000
96.2800 4425.0000
96.3000 4476.0000
96.3200 4385.0000
96.3400 4462.0000
96.3600 4313.0000
96.3800 4317.0000
96.4000 4189.0000
96.4200 4237.0000
96.4400 4181.0000
96.4600 4199.0000
96.4800 4091.0000
96.5000 4124.0000
96.5200 4126.0000
96.5400 4195.0000
96.5600 4047.0000
96.5800 4102.0000
96.6000 4115.0000
96.6200 3983.0000
96.6400 3991.0000
96.6600 3966.0000
96.6800 4095.0000
96.7000 4005.0000
96.7200 4016.0000
96.7400 4041.0000
96.7600 3942.0000
96.7800 3925.0000
96.8000 4013.0000
96.8200 3878.0000
96.8400 3942.0000
96.8600 3874.0000
96.8800 3937.0000
96.9000 3881.0000
96.9200 3882.0000
96.9400 3929.0000
96.9600 4055.0000
96.9800 3894.0000
97.0000 3996.0000
97.0200 3963.0000
97.0400 3889.0000
97.0600 4002.0000
97.0800 3963.0000
97.1000 3970.0000
97.1200 4039.0000
97.1400 3947.0000
97.1600 3997.0000
97.1800 3959.0000
97.2000 4002.0000
97.2200 3969.0000
97.2400 3927.0000
97.2600 3824.0000
97.2800 3853.0000
97.3000 3918.0000
97.3200 3934.0000
97.3400 3973.0000
97.3600 3878.0000
97.3800 3886.0000
97.4000 3853.0000
97.4200 3873.0000
97.4400 3748.0000
97.4600 3663.0000
97.4800 3839.0000
97.5000 3774.0000
97.5200 3801.0000
97.5400 3694.0000
97.5600 3776.0000
97.5800 3815.0000
97.6000 3712.0000
97.6200 3703.0000
97.6400 3696.0000
97.6600 3603.0000
97.6800 3655.0000
97.7000 3823.0000
97.7200 3620.0000
97.7400 3672.0000
97.7600 3638.0000
97.7800 3551.0000
97.8000 3587.0000
97.8200 3410.0000
97.8400 3631.0000
97.8600 3617.0000
97.8800 3608.0000
97.9000 3573.0000
97.9200 3413.0000
97.9400 3563.0000
97.9600 3584.0000
97.9800 3600.0000
98.0000 3488.0000
98.0200 3548.0000
98.0400 3383.0000
98.0600 3418.0000
98.0800 3437.0000
98.1000 3412.0000
98.1200 3516.0000
98.1400 3518.0000
98.1600 3401.0000
98.1800 3525.0000
98.2000 3509.0000
98.2200 3458.0000
98.2400 3523.0000
98.2600 3344.0000
98.2800 3392.0000
98.3000 3398.0000
98.3200 3490.0000
98.3400 3432.0000
98.3600 3274.0000
98.3800 3394.0000
98.4000 3420.0000
98.4200 3534.0000
98.4400 3423.0000
98.4600 3411.0000
98.4800 3468.0000
98.5000 3520.0000
98.5200 3325.0000
98.5400 3462.0000
98.5600 3413.0000
98.5800 3429.0000
98.6000 3397.0000
98.6200 3379.0000
98.6400 3423.0000
98.6600 3446.0000
98.6800 3420.0000
98.7000 3416.0000
98.7200 3473.0000
98.7400 3348.0000
98.7600 3456.0000
98.7800 3407.0000
98.8000 3510.0000
98.8200 3442.0000
98.8400 3451.0000
98.8600 3486.0000
98.8800 3427.0000
98.9000 3421.0000
98.9200 3385.0000
98.9400 3419.0000
98.9600 3380.0000
98.9800 3445.0000
99.0000 3367.0000
99.0200 3366.0000
99.0400 3504.0000
99.0600 3529.0000
99.0800 3416.0000
99.1000 3452.0000
99.1200 3519.0000
99.1400 3508.0000
99.1600 3469.0000
99.1800 3424.0000
99.2000 3466.0000
99.2200 3462.0000
99.2400 3404.0000
99.2600 3375.0000
99.2800 3458.0000
99.3000 3572.0000
99.3200 3402.0000
99.3400 3502.0000
99.3600 3520.0000
99.3800 3567.0000
99.4000 3439.0000
99.4200 3371.0000
99.4400 3477.0000
99.4600 3371.0000
99.4800 3492.0000
99.5000 3492.0000
99.5200 3453.0000
99.5400 3431.0000
99.5600 3518.0000
99.5800 3446.0000
99.6000 3448.0000
99.6200 3385.0000
99.6400 3352.0000
99.6600 3462.0000
99.6800 3594.0000
99.7000 3519.0000
99.7200 3389.0000
99.7400 3362.0000
99.7600 3628.0000
99.7800 3486.0000
99.8000 3452.0000
99.8200 3518.0000
99.8400 3502.0000
99.8600 3434.0000
99.8800 3467.0000
99.9000 3552.0000
99.9200 3476.0000
99.9400 3422.0000
99.9600 3471.0000
99.9800 3548.0000
100.0000 3396.0000
